timestamps,eeg_1,eeg_2,eeg_3,eeg_4,ppg_1,ppg_2,ppg_3
1553360313.8277841,,,,,,,
1553360313.8629529,,,,,,,
1553360313.8981218,,,,,,,
1553360313.9332907,,,,,,,
1553360313.9684596,,,,,,,
1553360313.9814019,,,,, 'recorder_version': '4'}""",,,,,
1553360313.9889510,,,,, 'os_version': '11.4.1', 'hardware_model_name': 'iPad AIR 2', 'hardware_model_id': 'iPad5,3', 'processor_name': 'ARM64 V8', 'processor_speed': 'Unknown', 'number_of_processors': 3, 'memory_size': '2084MB', 'bluetooth_version': '4.2', 'time_zone': 'EDT', 'time_zone_offset_seconds': -14400}""",
1553360313.9892571,,,,, 'preset': '51', 'model': 'MU_03', 'headband_name': 'Muse-2051', 'microcontroller_id': '003b003d 46435014 20323754', 'filters_enabled': False, 'notch_frequency_hz': 0, 'eeg_sample_frequency_hz': 4294967295, 'eeg_output_frequency_hz': 256, 'eeg_samples_bitwidth': 16, 'eeg_channel_count': 4, 'eeg_channel_layout': 'TP9 FP1 FP2 TP10', 'eeg_downsample': 4294967295
1553360314.0036285,,,,,,,
1553360314.0181925,,,,,,,
1553360314.0184550,,,,,,,
1553360314.0314562,,,,,2389377.25,167911568.0,159873120.0
1553360314.0378261,,,,,,,
1553360314.0380886,,,,,,,
1553360314.0387976,,,,,,,
1553360314.0470555,,,,,2394212.5,167894656.0,159833632.0
1553360314.0574596,,,,,,,
1553360314.0577219,,,,,,,
1553360314.0626547,,,,,2390989.0,167888208.0,159818320.0
1553360314.0723295,877.179504395,816.336975098,811.501831055,883.626403809,,,
1553360314.0739665,,,,,,,
1553360314.0762284,867.912109375,816.336975098,815.128234863,853.003662109,,,
1553360314.0770929,,,,,,,
1553360314.0773554,,,,,,,
1553360314.0782540,,,,,2396630.0,167944608.0,159861824.0
1553360314.0801272,824.395629883,814.725280762,810.293029785,792.967041016,,,
1553360314.0840263,823.186828613,811.501831055,805.860778809,806.666687012,,,
1553360314.0879252,868.315002441,811.904785156,816.336975098,856.630065918,,,
1553360314.0918241,877.582397461,813.113525391,819.963378906,860.256408691,,,
1553360314.0938532,,,,,2392600.75,167979264.0,159877136.0
1553360314.0957229,835.67767334,810.695983887,814.32232666,808.681335449,,,
1553360314.0967264,,,,,,,
1553360314.0969889,,,,,,,
1553360314.0991402,,,,,,,
1553360314.0991402,,,,,,,
1553360314.0993669,,,,,,,
1553360314.0993874,,,,,,,
1553360314.0994134,,,,,,,
1553360314.0995305,,,,,,,
1553360314.0995922,,,,,,,
1553360314.0996220,829.230773926,816.739929199,812.710632324,795.787536621,,,
1553360314.0996325,,,,,,,
1553360314.0996635,,,,,,,
1553360314.0996964,,,,,,,
1553360314.0998204,,,,,,,
1553360314.0998561,,,,,,,
1553360314.0998821,,,,,,,
1553360314.0999129,,,,,,,
1553360314.1000059,,,,,,,
1553360314.1000528,,,,,,,
1553360314.1000717,,,,,,,
1553360314.1002364,,,,,,,
1553360314.1035209,874.358947754,819.157531738,815.128234863,853.406616211,,,
1553360314.1074197,902.161193848,811.904785156,815.934082031,871.94140625,,,
1553360314.1091354,,,,,,,
1553360314.1094522,,,,,2393406.5,167958320.0,159840880.0
1553360314.1113186,867.509155273,807.875488281,810.293029785,817.545776367,,,
1553360314.1152177,834.871765137,806.26373291,803.846130371,782.490844727,,,
1553360314.1163599,,,,,,,
1553360314.1166222,,,,,,,
1553360314.1191165,862.271057129,812.307678223,801.428588867,836.886474609,,,
1553360314.1230154,894.102539062,817.948730469,795.384643555,885.238098145,,,
1553360314.1250515,,,,,2398241.75,167926080.0,159864256.0
1553360314.1269143,868.315002441,817.948730469,796.996337891,836.483520508,,,
1553360314.1308134,832.857116699,818.351623535,807.875488281,791.758239746,,,
1553360314.1347122,848.168518066,817.142883301,815.53112793,830.842468262,,,
1553360314.1359935,,,,,,,
1553360314.1362557,,,,,,,
1553360314.1386111,884.029296875,807.069580078,814.32232666,881.20880127,,,
1553360314.1406507,,,,,2393406.5,167951056.0,159803008.0
1553360314.1425099,885.238098145,805.457885742,814.32232666,862.271057129,,,
1553360314.1443043,,,,,,,
1553360314.1464090,851.391967773,814.32232666,817.948730469,811.904785156,,,
1553360314.1503079,843.333312988,814.32232666,820.366271973,820.366271973,,,
1553360314.1542068,881.20880127,813.516479492,819.963378906,881.611694336,,,
1553360314.1556270,,,,,,,
1553360314.1558890,,,,,,,
1553360314.1562500,,,,,2386959.75,167966368.0,159776416.0
1553360314.1581056,897.728942871,815.934082031,819.963378906,876.373596191,,,
1553360314.1620047,859.047607422,818.351623535,818.754577637,810.293029785,,,
1553360314.1659036,835.67767334,815.128234863,811.904785156,798.608032227,,,
1553360314.1698024,866.703308105,808.681335449,810.695983887,848.974365234,,,
1553360314.1718493,,,,,2395018.25,167956704.0,159860224.0
1553360314.1737013,894.102539062,808.278381348,812.710632324,876.373596191,,,
1553360314.1752605,,,,,,,
1553360314.1755226,,,,,,,
1553360314.1776004,870.329650879,811.098876953,805.457885742,826.41027832,,,
1553360314.1794732,,,,,,,
1553360314.1814992,832.051269531,813.113525391,802.637390137,789.743591309,,,
1553360314.1853981,849.780212402,813.516479492,805.457885742,831.648376465,,,
1553360314.1874485,,,,,2396630.0,167965568.0,159844096.0
1553360314.1892970,889.670349121,812.710632324,808.681335449,870.329650879,,,
1553360314.1931961,876.776550293,810.293029785,811.904785156,833.663024902,,,
1553360314.1948938,,,,,,,
1553360314.1951561,,,,,,,
1553360314.1970949,833.663024902,809.890136719,811.098876953,786.1171875,,,
1553360314.2006135,,,,,,,
1553360314.2006135,,,,,,,
1553360314.2008402,,,,,,,
1553360314.2008607,,,,,,,
1553360314.2008867,,,,,,,
1553360314.2009938,838.095214844,811.098876953,803.443237305,820.769226074,,,
1553360314.2010038,,,,,,,
1553360314.2010653,,,,,,,
1553360314.2011056,,,,,,,
1553360314.2011366,,,,,,,
1553360314.2011695,,,,,,,
1553360314.2012935,,,,,,,
1553360314.2013290,,,,,,,
1553360314.2013550,,,,,,,
1553360314.2013857,,,,,,,
1553360314.2014787,,,,,,,
1553360314.2015254,,,,,,,
1553360314.2015443,,,,,,,
1553360314.2017088,,,,,,,
1553360314.2030478,,,,,2389377.25,167904320.0,159838464.0
1553360314.2048926,877.582397461,814.725280762,805.457885742,879.194152832,,,
1553360314.2087917,877.985351562,820.769226074,811.904785156,865.494506836,,,
1553360314.2126906,825.201477051,815.128234863,806.26373291,809.890136719,,,
1553360314.2145274,,,,,,,
1553360314.2146420,,,,,,,
1553360314.2147894,,,,,,,
1553360314.2165895,806.666687012,807.875488281,813.113525391,812.307678223,,,
1553360314.2186470,,,,,2392600.75,167888208.0,159834432.0
1553360314.2204883,850.183166504,811.098876953,819.560424805,863.076904297,,,
1553360314.2243874,869.120849609,814.725280762,811.098876953,864.688659668,,,
1553360314.2282863,836.886474609,812.710632324,807.47253418,815.128234863,,,
1553360314.2321851,811.904785156,807.875488281,811.098876953,803.040283203,,,
1553360314.2341609,,,,,,,
1553360314.2342463,,,,,2390183.25,167934944.0,159812672.0
1553360314.2344229,,,,,,,
1553360314.2360840,836.080566406,808.681335449,813.113525391,851.391967773,,,
1553360314.2399831,855.018310547,809.487182617,808.278381348,872.344299316,,,
1553360314.2438819,826.007324219,809.487182617,805.860778809,835.274719238,,,
1553360314.2477808,788.534790039,808.681335449,814.32232666,796.190490723,,,
1553360314.2498109,,,,,,,
1553360314.2498453,,,,,2396630.0,167939776.0,159861024.0
1553360314.2516797,809.487182617,809.487182617,810.293029785,823.992675781,,,
1553360314.2537944,,,,,,,
1553360314.2540565,,,,,,,
1553360314.2555788,854.615356445,813.516479492,804.652038574,873.553100586,,,
1553360314.2594776,839.706970215,814.725280762,804.652038574,843.333312988,,,
1553360314.2633765,797.399291992,815.53112793,804.249084473,791.758239746,,,
1553360314.2654445,,,,,2386959.75,167976848.0,159875536.0
1553360314.2672753,801.428588867,813.919433594,801.428588867,817.948730469,,,
1553360314.2711744,840.512817383,813.113525391,800.622680664,880.402954102,,,
1553360314.2734280,,,,,,,
1553360314.2736897,,,,,,,
1553360314.2750733,844.945068359,814.32232666,801.025634766,870.329650879,,,
1553360314.2789721,805.054931641,814.725280762,801.831481934,808.681335449,,,
1553360314.2810438,,,,,2392600.75,167911568.0,159850544.0
1553360314.2828710,790.549438477,814.32232666,807.47253418,806.666687012,,,
1553360314.2849798,,,,,,,
1553360314.2867701,832.857116699,816.336975098,812.710632324,860.256408691,,,
1553360314.2906690,860.256408691,819.560424805,812.710632324,877.582397461,,,
1553360314.2930615,,,,,,,
1553360314.2933233,,,,,,,
1553360314.2945678,823.186828613,819.157531738,809.890136719,831.245422363,,,
1553360314.2966430,,,,,2387765.5,167967184.0,159818320.0
1553360314.2984667,785.311340332,816.739929199,809.487182617,804.652038574,,,
1553360314.3020866,,,,,,,
1553360314.3020866,,,,,,,
1553360314.3023133,,,,,,,
1553360314.3023343,,,,,,,
1553360314.3023603,,,,,,,
1553360314.3023658,803.040283203,815.934082031,804.652038574,859.047607422,,,
1553360314.3024769,,,,,,,
1553360314.3025386,,,,,,,
1553360314.3025789,,,,,,,
1553360314.3026099,,,,,,,
1553360314.3026428,,,,,,,
1553360314.3027663,,,,,,,
1553360314.3028021,,,,,,,
1553360314.3028281,,,,,,,
1553360314.3028588,,,,,,,
1553360314.3029513,,,,,,,
1553360314.3029983,,,,,,,
1553360314.3030171,,,,,,,
1553360314.3031814,,,,,,,
1553360314.3062646,834.065917969,812.710632324,803.040283203,884.029296875,,,
1553360314.3101635,818.754577637,809.084228516,806.666687012,830.842468262,,,
1553360314.3122423,,,,,2388571.5,167992160.0,159888432.0
1553360314.3126948,,,,,,,
1553360314.3129566,,,,,,,
1553360314.3140624,778.05859375,805.860778809,802.637390137,794.175842285,,,
1553360314.3179615,796.593383789,807.069580078,800.622680664,831.648376465,,,
1553360314.3201487,,,,,,,
1553360314.3218603,840.915771484,807.069580078,799.010986328,874.761901855,,,
1553360314.3257592,835.67767334,811.501831055,799.010986328,853.003662109,,,
1553360314.3278415,,,,,2392600.75,168023584.0,159865056.0
1553360314.3296580,796.996337891,815.53112793,802.234436035,809.084228516,,,
1553360314.3323283,,,,,,,
1553360314.3325901,,,,,,,
1553360314.3335571,794.175842285,813.516479492,800.622680664,823.992675781,,,
1553360314.3374560,843.73626709,809.487182617,802.234436035,870.329650879,,,
1553360314.3413548,861.465209961,811.098876953,801.831481934,859.450561523,,,
1553360314.3434408,,,,,2390989.0,167992160.0,159865856.0
1553360314.3452537,816.336975098,809.890136719,799.816833496,805.457885742,,,
1553360314.3491528,796.996337891,807.875488281,803.040283203,800.622680664,,,
1553360314.3519619,,,,,,,
1553360314.3522236,,,,,,,
1553360314.3530517,838.095214844,812.307678223,807.875488281,860.659362793,,,
1553360314.3553176,,,,,,,
1553360314.3569505,861.062255859,812.307678223,811.501831055,879.194152832,,,
1553360314.3590400,,,,,2395824.25,168054208.0,159927104.0
1553360314.3608494,826.813171387,812.710632324,813.113525391,831.245422363,,,
1553360314.3647485,801.428588867,810.695983887,818.351623535,805.054931641,,,
1553360314.3686473,829.230773926,807.069580078,819.157531738,843.333312988,,,
1553360314.3715954,,,,,,,
1553360314.3718569,,,,,,,
1553360314.3725462,865.091552734,807.47253418,812.710632324,878.388305664,,,
1553360314.3746393,,,,,2390183.25,168038096.0,159918240.0
1553360314.3764451,843.73626709,807.069580078,809.487182617,838.901123047,,,
1553360314.3803442,807.069580078,801.831481934,808.681335449,794.175842285,,,
1553360314.3842430,825.201477051,804.652038574,810.695983887,827.619018555,,,
1553360314.3881419,870.73260498,811.904785156,807.069580078,874.761901855,,,
1553360314.3902383,,,,,2390989.0,167996992.0,159916624.0
1553360314.3904865,,,,,,,
1553360314.3912289,,,,,,,
1553360314.3914905,,,,,,,
1553360314.3920407,867.106201172,809.084228516,803.443237305,862.67401123,,,
1553360314.3959398,822.380981445,805.054931641,805.860778809,809.084228516,,,
1553360314.3998387,819.560424805,803.846130371,806.666687012,809.084228516,,,
1553360314.4035599,,,,,,,
1553360314.4035599,,,,,,,
1553360314.4037375,864.688659668,807.47253418,808.681335449,863.076904297,,,
1553360314.4037867,,,,,,,
1553360314.4038076,,,,,,,
1553360314.4038336,,,,,,,
1553360314.4039502,,,,,,,
1553360314.4040117,,,,,,,
1553360314.4040520,,,,,,,
1553360314.4040830,,,,,,,
1553360314.4041159,,,,,,,
1553360314.4042394,,,,,,,
1553360314.4042749,,,,,,,
1553360314.4043009,,,,,,,
1553360314.4043317,,,,,,,
1553360314.4044242,,,,,,,
1553360314.4044709,,,,,,,
1553360314.4044898,,,,,,,
1553360314.4046538,,,,,,,
1553360314.4058375,,,,,2398241.75,168047760.0,159947248.0
1553360314.4076364,874.358947754,813.516479492,810.695983887,862.271057129,,,
1553360314.4108624,,,,,,,
1553360314.4111240,,,,,,,
1553360314.4115355,829.633728027,811.904785156,806.26373291,808.278381348,,,
1553360314.4154344,810.695983887,804.652038574,802.637390137,796.593383789,,,
1553360314.4193332,850.989013672,803.846130371,809.487182617,850.989013672,,,
1553360314.4214368,,,,,2399047.5,168071936.0,159932752.0
1553360314.4232321,880.0,807.875488281,808.681335449,885.238098145,,,
1553360314.4256554,,,,,,,
1553360314.4271312,856.227111816,809.890136719,806.666687012,837.289367676,,,
1553360314.4304957,,,,,,,
1553360314.4307573,,,,,,,
1553360314.4310300,827.619018555,811.098876953,807.47253418,795.787536621,,,
1553360314.4349289,854.615356445,817.142883301,808.681335449,845.750915527,,,
1553360314.4370360,,,,,2395824.25,168112240.0,159963376.0
1553360314.4388278,894.505493164,816.336975098,813.113525391,889.670349121,,,
1553360314.4427269,882.820495605,815.53112793,816.336975098,854.212463379,,,
1553360314.4466257,844.139221191,814.32232666,814.725280762,806.666687012,,,
1553360314.4501293,,,,,,,
1553360314.4503908,,,,,,,
1553360314.4505246,842.930419922,812.710632324,813.919433594,838.498168945,,,
1553360314.4526353,,,,,2398241.75,168168640.0,159940800.0
1553360314.4544234,882.014648438,811.904785156,817.545776367,898.534790039,,,
1553360314.4583225,879.597045898,809.487182617,822.783874512,876.776550293,,,
1553360314.4608245,,,,,,,
1553360314.4622214,832.857116699,810.293029785,816.336975098,816.336975098,,,
1553360314.4661202,822.380981445,811.501831055,810.293029785,823.186828613,,,
1553360314.4682345,,,,,2401465.25,168134800.0,159947248.0
1553360314.4697628,,,,,,,
1553360314.4700191,864.688659668,816.336975098,817.948730469,877.985351562,,,
1553360314.4700241,,,,,,,
1553360314.4739182,881.611694336,819.560424805,818.351623535,876.776550293,,,
1553360314.4778171,837.289367676,818.351623535,813.516479492,823.186828613,,,
1553360314.4817159,809.084228516,815.128234863,805.860778809,820.769226074,,,
1553360314.4838338,,,,,2397436.0,168135600.0,159894864.0
1553360314.4856148,836.886474609,806.666687012,807.069580078,863.479858398,,,
1553360314.4893963,,,,,,,
1553360314.4895139,855.421264648,802.637390137,817.545776367,879.194152832,,,
1553360314.4896576,,,,,,,
1553360314.4934127,820.769226074,805.457885742,812.307678223,832.857116699,,,
1553360314.4959934,,,,,,,
1553360314.4973116,788.534790039,810.293029785,807.875488281,798.608032227,,,
1553360314.4994330,,,,,2403882.75,168146880.0,159923888.0
1553360314.5012105,813.113525391,811.501831055,815.128234863,843.333312988,,,
1553360314.5050333,,,,,,,
1553360314.5050333,,,,,,,
1553360314.5051095,851.79486084,809.084228516,815.53112793,880.805847168,,,
1553360314.5052598,,,,,,,
1553360314.5052810,,,,,,,
1553360314.5053070,,,,,,,
1553360314.5054235,,,,,,,
1553360314.5054848,,,,,,,
1553360314.5055254,,,,,,,
1553360314.5055563,,,,,,,
1553360314.5055890,,,,,,,
1553360314.5057123,,,,,,,
1553360314.5057480,,,,,,,
1553360314.5057740,,,,,,,
1553360314.5058045,,,,,,,
1553360314.5058970,,,,,,,
1553360314.5059438,,,,,,,
1553360314.5059626,,,,,,,
1553360314.5061264,,,,,,,
1553360314.5090084,840.512817383,807.069580078,805.860778809,846.153869629,,,
1553360314.5090299,,,,,,,
1553360314.5092912,,,,,,,
1553360314.5129073,794.981689453,801.831481934,799.010986328,801.831481934,,,
1553360314.5150323,,,,,2403077.0,168241984.0,159989152.0
1553360314.5168061,804.652038574,800.622680664,801.428588867,817.948730469,,,
1553360314.5207052,859.450561523,803.846130371,805.860778809,865.897460938,,,
1553360314.5246041,869.926757812,802.637390137,807.875488281,855.018310547,,,
1553360314.5285029,831.245422363,801.428588867,795.787536621,802.637390137,,,
1553360314.5286634,,,,,,,
1553360314.5289245,,,,,,,
1553360314.5306313,,,,,2403882.75,168185568.0,159912608.0
1553360314.5311623,,,,,,,
1553360314.5324018,830.439575195,807.069580078,794.175842285,803.040283203,,,
1553360314.5363009,886.84979248,810.695983887,801.025634766,859.450561523,,,
1553360314.5401998,909.41394043,808.278381348,798.20513916,877.985351562,,,
1553360314.5440986,873.956054688,806.26373291,805.054931641,829.633728027,,,
1553360314.5462306,,,,,2397436.0,168166224.0,159925488.0
1553360314.5479975,861.062255859,812.710632324,815.128234863,799.816833496,,,
1553360314.5482967,,,,,,,
1553360314.5485580,,,,,,,
1553360314.5518966,904.175842285,812.307678223,813.113525391,853.809509277,,,
1553360314.5557954,943.260070801,808.681335449,815.128234863,888.864440918,,,
1553360314.5596943,928.351623535,813.113525391,819.157531738,839.304016113,,,
1553360314.5618298,,,,,2395824.25,168092080.0,159899712.0
1553360314.5635931,887.655700684,812.710632324,813.113525391,803.040283203,,,
1553360314.5663311,,,,,,,
1553360314.5674922,903.772888184,813.113525391,805.860778809,834.065917969,,,
1553360314.5679302,,,,,,,
1553360314.5681915,,,,,,,
1553360314.5713911,946.483520508,813.919433594,805.457885742,876.776550293,,,
1553360314.5752900,925.128234863,815.128234863,808.681335449,853.809509277,,,
1553360314.5774291,,,,,2393406.5,168074352.0,159862640.0
1553360314.5791888,880.402954102,824.395629883,811.501831055,794.981689453,,,
1553360314.5830879,882.417602539,825.201477051,810.695983887,810.293029785,,,
1553360314.5869868,919.487182617,817.142883301,810.293029785,867.509155273,,,
1553360314.5875638,,,,,,,
1553360314.5878248,,,,,,,
1553360314.5908856,923.516479492,816.336975098,809.487182617,862.67401123,,,
1553360314.5930283,,,,,2398241.75,168038096.0,159925488.0
1553360314.5947845,886.043945312,821.172180176,807.069580078,805.457885742,,,
1553360314.5986836,875.970703125,821.575073242,812.710632324,809.487182617,,,
1553360314.6015000,,,,,,,
1553360314.6025825,907.399291992,817.948730469,815.128234863,867.106201172,,,
1553360314.6064813,925.128234863,818.351623535,808.278381348,880.0,,,
1553360314.6065066,,,,,,,
1553360314.6065066,,,,,,,
1553360314.6067331,,,,,,,
1553360314.6067543,,,,,,,
1553360314.6067803,,,,,,,
1553360314.6068966,,,,,,,
1553360314.6069582,,,,,,,
1553360314.6069984,,,,,,,
1553360314.6070294,,,,,,,
1553360314.6070623,,,,,,,
1553360314.6071854,,,,,,,
1553360314.6071973,,,,,,,
1553360314.6072209,,,,,,,
1553360314.6072469,,,,,,,
1553360314.6072774,,,,,,,
1553360314.6073699,,,,,,,
1553360314.6074164,,,,,,,
1553360314.6074352,,,,,,,
1553360314.6074584,,,,,,,
1553360314.6075988,,,,,,,
1553360314.6086276,,,,,2391794.75,168009888.0,159826368.0
1553360314.6103802,888.864440918,817.948730469,805.457885742,832.051269531,,,
1553360314.6142793,851.391967773,817.545776367,807.875488281,809.890136719,,,
1553360314.6181781,877.179504395,821.575073242,810.293029785,858.241760254,,,
1553360314.6220770,917.875488281,826.007324219,823.58972168,894.102539062,,,
1553360314.6242268,,,,,2390989.0,167973632.0,159822352.0
1553360314.6259758,895.311340332,823.186828613,830.036621094,853.809509277,,,
1553360314.6268308,,,,,,,
1553360314.6270916,,,,,,,
1553360314.6298749,848.571411133,817.948730469,817.948730469,812.710632324,,,
1553360314.6337738,859.450561523,819.963378906,813.516479492,853.809509277,,,
1553360314.6366689,,,,,,,
1553360314.6376727,905.384643555,819.963378906,816.739929199,894.908447266,,,
1553360314.6398261,,,,,2391794.75,167920432.0,159889232.0
1553360314.6415715,901.758239746,817.142883301,814.32232666,861.465209961,,,
1553360314.6454706,853.809509277,816.739929199,810.695983887,810.695983887,,,
1553360314.6464643,,,,,,,
1553360314.6467252,,,,,,,
1553360314.6493695,846.959716797,821.575073242,805.054931641,823.992675781,,,
1553360314.6532683,882.417602539,825.201477051,798.608032227,875.164855957,,,
1553360314.6554253,,,,,2390989.0,167912384.0,159800592.0
1553360314.6571672,886.446899414,822.783874512,811.501831055,874.358947754,,,
1553360314.6610663,840.512817383,821.978027344,811.501831055,825.604370117,,,
1553360314.6649652,813.516479492,821.172180176,804.249084473,820.366271973,,,
1553360314.6660976,,,,,,,
1553360314.6663587,,,,,,,
1553360314.6688640,847.765563965,819.963378906,811.098876953,862.67401123,,,
1553360314.6710246,,,,,2391794.75,167913184.0,159818320.0
1553360314.6718378,,,,,,,
1553360314.6727629,869.926757812,817.142883301,810.293029785,880.0,,,
1553360314.6766620,843.73626709,816.739929199,807.069580078,832.857116699,,,
1553360314.6805608,815.934082031,818.351623535,809.890136719,799.010986328,,,
1553360314.6844597,830.439575195,817.142883301,813.113525391,842.124511719,,,
1553360314.6857312,,,,,,,
1553360314.6859920,,,,,,,
1553360314.6866236,,,,,2390183.25,167889824.0,159811056.0
1553360314.6883585,863.8828125,819.963378906,807.47253418,888.461547852,,,
1553360314.6922576,852.197814941,816.336975098,800.219787598,860.256408691,,,
1553360314.6961565,819.963378906,808.278381348,802.234436035,809.084228516,,,
1553360314.7000554,828.021972656,812.307678223,805.860778809,830.842468262,,,
1553360314.7022228,,,,,2386959.75,167878528.0,159827984.0
1553360314.7039542,864.688659668,815.934082031,813.516479492,879.597045898,,,
1553360314.7053647,,,,,,,
1553360314.7056255,,,,,,,
1553360314.7070067,,,,,,,
1553360314.7078533,859.450561523,813.516479492,810.695983887,859.047607422,,,
1553360314.7079797,,,,,,,
1553360314.7079797,,,,,,,
1553360314.7082062,,,,,,,
1553360314.7082279,,,,,,,
1553360314.7082539,,,,,,,
1553360314.7083700,,,,,,,
1553360314.7084312,,,,,,,
1553360314.7084715,,,,,,,
1553360314.7085028,,,,,,,
1553360314.7085354,,,,,,,
1553360314.7086585,,,,,,,
1553360314.7086940,,,,,,,
1553360314.7087197,,,,,,,
1553360314.7087505,,,,,,,
1553360314.7088425,,,,,,,
1553360314.7088892,,,,,,,
1553360314.7089081,,,,,,,
1553360314.7090714,,,,,,,
1553360314.7117522,817.545776367,813.113525391,807.069580078,804.652038574,,,
1553360314.7156510,808.681335449,807.875488281,809.487182617,809.084228516,,,
1553360314.7178221,,,,,2396630.0,167913184.0,159857808.0
1553360314.7195499,846.153869629,806.666687012,809.084228516,865.091552734,,,
1553360314.7234490,856.630065918,810.695983887,806.666687012,877.985351562,,,
1553360314.7249982,,,,,,,
1553360314.7252591,,,,,,,
1553360314.7273479,818.754577637,813.113525391,807.47253418,815.934082031,,,
1553360314.7312467,804.652038574,816.739929199,802.637390137,792.967041016,,,
1553360314.7334213,,,,,2384542.0,167879344.0,159803008.0
1553360314.7351456,840.109863281,817.142883301,792.967041016,844.542114258,,,
1553360314.7390447,869.926757812,814.32232666,792.161193848,871.135559082,,,
1553360314.7421756,,,,,,,
1553360314.7429435,842.52746582,811.904785156,792.161193848,831.648376465,,,
1553360314.7446318,,,,,,,
1553360314.7448924,,,,,,,
1553360314.7468424,805.860778809,810.293029785,790.549438477,802.234436035,,,
1553360314.7490206,,,,,2390989.0,167901104.0,159852960.0
1553360314.7507412,820.769226074,809.487182617,790.14654541,842.930419922,,,
1553360314.7546403,851.391967773,809.084228516,791.758239746,888.864440918,,,
1553360314.7585392,835.67767334,811.904785156,798.20513916,851.79486084,,,
1553360314.7624381,798.20513916,815.53112793,792.564086914,797.802185059,,,
1553360314.7642653,,,,,,,
1553360314.7645259,,,,,,,
1553360314.7646198,,,,,2390989.0,167885792.0,159852160.0
1553360314.7663369,804.652038574,813.113525391,785.311340332,822.783874512,,,
1553360314.7702360,840.109863281,817.142883301,797.802185059,882.014648438,,,
1553360314.7741349,842.930419922,823.186828613,801.831481934,873.956054688,,,
1553360314.7773445,,,,,,,
1553360314.7780337,806.666687012,828.021972656,799.010986328,823.186828613,,,
1553360314.7802191,,,,,2396630.0,167909968.0,159835232.0
1553360314.7819326,794.175842285,826.41027832,805.457885742,824.395629883,,,
1553360314.7838986,,,,,,,
1553360314.7841594,,,,,,,
1553360314.7858317,830.036621094,818.754577637,803.040283203,871.538452148,,,
1553360314.7897305,848.168518066,813.919433594,801.025634766,876.776550293,,,
1553360314.7936294,811.501831055,813.113525391,812.307678223,821.978027344,,,
1553360314.7958183,,,,,2394212.5,167931728.0,159798176.0
1553360314.7975283,784.908447266,809.487182617,810.695983887,801.428588867,,,
1553360314.8014274,812.307678223,805.054931641,803.040283203,849.377319336,,,
1553360314.8035321,,,,,,,
1553360314.8037927,,,,,,,
1553360314.8053262,845.347961426,805.054931641,808.278381348,879.597045898,,,
1553360314.8092251,822.783874512,805.054931641,805.860778809,838.498168945,,,
1553360314.8094530,,,,,,,
1553360314.8094530,,,,,,,
1553360314.8096795,,,,,,,
1553360314.8097012,,,,,,,
1553360314.8097272,,,,,,,
1553360314.8098433,,,,,,,
1553360314.8099046,,,,,,,
1553360314.8099449,,,,,,,
1553360314.8099759,,,,,,,
1553360314.8100085,,,,,,,
1553360314.8101313,,,,,,,
1553360314.8101668,,,,,,,
1553360314.8101928,,,,,,,
1553360314.8102233,,,,,,,
1553360314.8103154,,,,,,,
1553360314.8103619,,,,,,,
1553360314.8103807,,,,,,,
1553360314.8105438,,,,,,,
1553360314.8114176,,,,,2392600.75,167925280.0,159825568.0
1553360314.8125134,,,,,,,
1553360314.8131239,770.805847168,804.249084473,795.384643555,802.637390137,,,
1553360314.8170230,788.534790039,802.234436035,801.025634766,832.051269531,,,
1553360314.8209219,844.945068359,800.219787598,809.487182617,865.091552734,,,
1553360314.8231657,,,,,,,
1553360314.8234262,,,,,,,
1553360314.8248208,842.124511719,803.040283203,805.054931641,842.930419922,,,
1553360314.8270166,,,,,2394212.5,167951872.0,159840880.0
1553360314.8287196,807.875488281,808.278381348,803.040283203,797.802185059,,,
1553360314.8326187,815.53112793,810.695983887,801.428588867,810.293029785,,,
1553360314.8365176,861.465209961,808.278381348,799.010986328,863.479858398,,,
1553360314.8404164,867.509155273,805.457885742,794.578735352,861.062255859,,,
1553360314.8426158,,,,,2394212.5,167870480.0,159869088.0
1553360314.8427992,,,,,,,
1553360314.8430595,,,,,,,
1553360314.8443153,820.769226074,803.846130371,790.14654541,805.860778809,,,
1553360314.8476825,,,,,,,
1553360314.8482144,809.890136719,804.652038574,797.399291992,793.772888184,,,
1553360314.8521132,858.241760254,811.904785156,803.846130371,848.974365234,,,
1553360314.8560121,888.461547852,812.307678223,801.025634766,865.091552734,,,
1553360314.8582151,,,,,2394212.5,167968784.0,159840080.0
1553360314.8599110,858.241760254,805.860778809,795.787536621,807.875488281,,,
1553360314.8624327,,,,,,,
1553360314.8626931,,,,,,,
1553360314.8638101,828.827819824,805.457885742,802.637390137,783.699645996,,,
1553360314.8677089,857.435913086,803.443237305,808.278381348,832.454223633,,,
1553360314.8716078,892.490844727,808.278381348,802.637390137,872.344299316,,,
1553360314.8738143,,,,,2397436.0,167928496.0,159816704.0
1553360314.8755066,863.479858398,806.666687012,801.428588867,835.67767334,,,
1553360314.8794057,822.380981445,805.457885742,799.816833496,786.520141602,,,
1553360314.8820662,,,,,,,
1553360314.8823266,,,,,,,
1553360314.8828514,,,,,,,
1553360314.8833046,835.67767334,809.487182617,797.802185059,818.754577637,,,
1553360314.8872035,876.373596191,805.457885742,800.219787598,871.135559082,,,
1553360314.8894136,,,,,2396630.0,167889824.0,159829600.0
1553360314.8911023,865.897460938,805.457885742,800.622680664,842.52746582,,,
1553360314.8950014,821.172180176,807.875488281,801.025634766,786.923095703,,,
1553360314.8989003,821.575073242,802.637390137,805.054931641,800.622680664,,,
1553360314.9016995,,,,,,,
1553360314.9019599,,,,,,,
1553360314.9027991,862.271057129,801.025634766,803.040283203,864.688659668,,,
1553360314.9050128,,,,,2390183.25,167892240.0,159848944.0
1553360314.9066980,880.402954102,803.443237305,799.41394043,860.256408691,,,
1553360314.9105971,845.347961426,802.234436035,803.443237305,792.564086914,,,
1553360314.9109263,,,,,,,
1553360314.9109263,,,,,,,
1553360314.9111528,,,,,,,
1553360314.9111745,,,,,,,
1553360314.9112005,,,,,,,
1553360314.9113164,,,,,,,
1553360314.9113777,,,,,,,
1553360314.9114180,,,,,,,
1553360314.9114492,,,,,,,
1553360314.9114819,,,,,,,
1553360314.9116044,,,,,,,
1553360314.9116399,,,,,,,
1553360314.9116657,,,,,,,
1553360314.9116962,,,,,,,
1553360314.9117882,,,,,,,
1553360314.9118347,,,,,,,
1553360314.9118533,,,,,,,
1553360314.9120164,,,,,,,
1553360314.9144959,826.813171387,801.025634766,804.249084473,787.728942871,,,
1553360314.9180202,,,,,,,
1553360314.9183948,865.091552734,801.025634766,800.622680664,847.765563965,,,
1553360314.9206121,,,,,2396630.0,167928496.0,159783664.0
1553360314.9213331,,,,,,,
1553360314.9215934,,,,,,,
1553360314.9222937,880.805847168,802.637390137,799.010986328,867.912109375,,,
1553360314.9261928,846.959716797,804.249084473,805.054931641,807.875488281,,,
1553360314.9300916,815.53112793,802.637390137,805.860778809,776.84979248,,,
1553360314.9339905,843.73626709,804.249084473,802.637390137,832.051269531,,,
1553360314.9362113,,,,,2398241.75,167968784.0,159863440.0
1553360314.9378893,882.820495605,813.516479492,807.069580078,870.73260498,,,
1553360314.9409666,,,,,,,
1553360314.9412270,,,,,,,
1553360314.9417884,859.047607422,816.336975098,808.278381348,832.857116699,,,
1553360314.9456873,815.53112793,808.681335449,802.637390137,789.743591309,,,
1553360314.9495862,821.978027344,802.234436035,803.443237305,818.351623535,,,
1553360314.9518106,,,,,2392600.75,167893840.0,159791728.0
1553360314.9531891,,,,,,,
1553360314.9534850,857.838806152,801.025634766,805.860778809,870.329650879,,,
1553360314.9573841,853.003662109,806.26373291,803.846130371,857.838806152,,,
1553360314.9606001,,,,,,,
1553360314.9608603,,,,,,,
1553360314.9612830,806.666687012,810.293029785,803.443237305,807.875488281,,,
1553360314.9651818,798.608032227,807.875488281,801.831481934,806.666687012,,,
1553360314.9674096,,,,,2391794.75,167919632.0,159811056.0
1553360314.9690807,840.109863281,808.278381348,803.846130371,857.032958984,,,
1553360314.9729798,851.391967773,808.278381348,810.293029785,859.85345459,,,
1553360314.9768786,813.113525391,804.652038574,805.457885742,805.860778809,,,
1553360314.9802337,,,,,,,
1553360314.9804938,,,,,,,
1553360314.9807775,789.340637207,802.637390137,799.816833496,790.549438477,,,
1553360314.9830089,,,,,2392600.75,167899488.0,159815088.0
1553360314.9846764,821.978027344,801.831481934,802.637390137,842.52746582,,,
1553360314.9883580,,,,,,,
1553360314.9885755,853.809509277,804.249084473,802.637390137,872.344299316,,,
1553360314.9924743,820.769226074,801.831481934,804.652038574,832.454223633,,,
1553360314.9963732,784.505493164,796.190490723,807.47253418,791.758239746,,,
1553360314.9986081,,,,,2392600.75,167906736.0,159854576.0
1553360314.9998672,,,,,,,
1553360315.0001271,,,,,,,
1553360315.0002720,812.307678223,799.010986328,803.040283203,825.201477051,,,
1553360315.0041711,859.047607422,805.054931641,806.666687012,872.344299316,,,
1553360315.0080700,853.809509277,811.098876953,806.26373291,845.347961426,,,
1553360315.0119689,804.652038574,809.890136719,803.443237305,799.010986328,,,
1553360315.0123994,,,,,,,
1553360315.0123994,,,,,,,
1553360315.0126259,,,,,,,
1553360315.0126481,,,,,,,
1553360315.0126739,,,,,,,
1553360315.0127897,,,,,,,
1553360315.0128508,,,,,,,
1553360315.0128913,,,,,,,
1553360315.0129223,,,,,,,
1553360315.0129550,,,,,,,
1553360315.0130773,,,,,,,
1553360315.0131128,,,,,,,
1553360315.0131388,,,,,,,
1553360315.0131691,,,,,,,
1553360315.0132608,,,,,,,
1553360315.0133073,,,,,,,
1553360315.0133262,,,,,,,
1553360315.0134888,,,,,,,
1553360315.0142074,,,,,2395824.25,167967184.0,159833632.0
1553360315.0158677,811.098876953,807.875488281,808.278381348,816.739929199,,,
1553360315.0195005,,,,,,,
1553360315.0197606,,,,,,,
1553360315.0197668,857.435913086,807.47253418,810.293029785,871.94140625,,,
1553360315.0235269,,,,,,,
1553360315.0236657,853.003662109,806.666687012,809.084228516,863.076904297,,,
1553360315.0275645,811.904785156,809.487182617,811.501831055,802.234436035,,,
1553360315.0298066,,,,,2393406.5,167956704.0,159885200.0
1553360315.0314634,800.622680664,809.084228516,812.307678223,802.637390137,,,
1553360315.0353625,840.512817383,805.457885742,814.725280762,859.85345459,,,
1553360315.0391340,,,,,,,
1553360315.0392613,861.868103027,808.681335449,815.128234863,866.703308105,,,
1553360315.0393941,,,,,,,
1553360315.0431602,823.58972168,809.084228516,809.084228516,809.487182617,,,
1553360315.0454059,,,,,2390989.0,167979264.0,159794944.0
1553360315.0470591,792.161193848,801.831481934,803.846130371,792.564086914,,,
1553360315.0509582,815.934082031,800.219787598,800.219787598,854.615356445,,,
1553360315.0548570,847.362609863,799.010986328,806.666687012,884.835144043,,,
1553360315.0586958,,,,,,,
1553360315.0587559,828.424926758,804.652038574,810.293029785,831.245422363,,,
1553360315.0587676,,,,,,,
1553360315.0590274,,,,,,,
1553360315.0610051,,,,,2387765.5,167951872.0,159849744.0
1553360315.0626547,794.981689453,812.307678223,806.26373291,792.161193848,,,
1553360315.0665538,806.666687012,807.47253418,805.054931641,823.58972168,,,
1553360315.0704527,846.959716797,805.054931641,799.816833496,868.717956543,,,
1553360315.0743515,841.318664551,808.278381348,798.608032227,844.542114258,,,
1553360315.0766044,,,,,2400659.25,168061472.0,159919040.0
1553360315.0782504,800.622680664,805.054931641,796.593383789,792.161193848,,,
1553360315.0784011,,,,,,,
1553360315.0786610,,,,,,,
1553360315.0821495,798.608032227,799.41394043,797.802185059,821.172180176,,,
1553360315.0860484,838.095214844,805.054931641,803.846130371,872.747253418,,,
1553360315.0899472,842.124511719,809.487182617,799.816833496,855.421264648,,,
1553360315.0922036,,,,,2390183.25,167971216.0,159889232.0
1553360315.0938461,798.20513916,809.084228516,796.593383789,799.010986328,,,
1553360315.0938647,,,,,,,
1553360315.0977452,780.879150391,810.695983887,801.428588867,792.967041016,,,
1553360315.0980346,,,,,,,
1553360315.0982945,,,,,,,
1553360315.1016440,815.934082031,808.681335449,799.41394043,848.168518066,,,
1553360315.1055429,843.73626709,811.098876953,799.816833496,863.076904297,,,
1553360315.1078026,,,,,2398241.75,168050992.0,159879568.0
1553360315.1094418,815.53112793,811.904785156,801.025634766,817.142883301,,,
1553360315.1133409,793.369934082,804.652038574,799.816833496,792.967041016,,,
1553360315.1138728,,,,,,,
1553360315.1138728,,,,,,,
1553360315.1140993,,,,,,,
1553360315.1141214,,,,,,,
1553360315.1141474,,,,,,,
1553360315.1142631,,,,,,,
1553360315.1143241,,,,,,,
1553360315.1143644,,,,,,,
1553360315.1143954,,,,,,,
1553360315.1144280,,,,,,,
1553360315.1145504,,,,,,,
1553360315.1145859,,,,,,,
1553360315.1146116,,,,,,,
1553360315.1146421,,,,,,,
1553360315.1147337,,,,,,,
1553360315.1147802,,,,,,,
1553360315.1147988,,,,,,,
1553360315.1149614,,,,,,,
1553360315.1172397,817.142883301,804.652038574,794.578735352,831.648376465,,,
1553360315.1176682,,,,,,,
1553360315.1179278,,,,,,,
1553360315.1211386,847.765563965,809.084228516,791.355285645,869.523803711,,,
1553360315.1234019,,,,,2399853.5,168042128.0,159915024.0
1553360315.1250374,830.439575195,809.084228516,794.981689453,827.216125488,,,
1553360315.1289365,799.010986328,806.666687012,797.802185059,785.311340332,,,
1553360315.1290336,,,,,,,
1553360315.1328354,821.172180176,805.860778809,794.578735352,825.604370117,,,
1553360315.1367342,865.494506836,808.681335449,797.802185059,877.985351562,,,
1553360315.1373014,,,,,,,
1553360315.1375613,,,,,,,
1553360315.1390011,,,,,2390989.0,167995392.0,159844096.0
1553360315.1406331,854.615356445,810.695983887,798.20513916,863.479858398,,,
1553360315.1445322,811.904785156,803.846130371,790.952392578,808.681335449,,,
1553360315.1484311,815.128234863,796.593383789,792.161193848,812.307678223,,,
1553360315.1523299,861.465209961,795.384643555,798.608032227,865.897460938,,,
1553360315.1546004,,,,,2399047.5,168052608.0,159882784.0
1553360315.1562288,875.164855957,794.175842285,801.831481934,867.912109375,,,
1553360315.1569350,,,,,,,
1553360315.1571946,,,,,,,
1553360315.1601279,831.245422363,793.772888184,802.234436035,809.487182617,,,
1553360315.1640267,809.487182617,795.384643555,800.219787598,797.802185059,,,
1553360315.1642025,,,,,,,
1553360315.1679256,849.780212402,799.010986328,795.384643555,859.047607422,,,
1553360315.1701996,,,,,2394212.5,168082416.0,159911792.0
1553360315.1718245,871.94140625,802.637390137,796.190490723,881.611694336,,,
1553360315.1757236,838.901123047,802.234436035,800.622680664,829.633728027,,,
1553360315.1765685,,,,,,,
1553360315.1768281,,,,,,,
1553360315.1796224,810.293029785,805.860778809,798.20513916,797.399291992,,,
1553360315.1835213,834.871765137,811.904785156,796.996337891,844.945068359,,,
1553360315.1857989,,,,,2395824.25,168148496.0,159954512.0
1553360315.1874201,870.73260498,814.725280762,796.190490723,882.417602539,,,
1553360315.1913192,846.959716797,816.336975098,801.428588867,840.109863281,,,
1553360315.1952181,802.637390137,813.919433594,800.622680664,792.161193848,,,
1553360315.1962020,,,,,,,
1553360315.1964617,,,,,,,
1553360315.1991169,810.695983887,809.487182617,799.41394043,823.186828613,,,
1553360315.1993713,,,,,,,
1553360315.2013981,,,,,2392600.75,168108208.0,159906160.0
1553360315.2030158,854.615356445,807.47253418,801.428588867,873.553100586,,,
1553360315.2069149,850.183166504,805.457885742,802.234436035,842.930419922,,,
1553360315.2108138,797.802185059,805.457885742,798.20513916,788.534790039,,,
1553360315.2147126,792.161193848,805.860778809,790.549438477,807.069580078,,,
1553360315.2153461,,,,,,,
1553360315.2153461,,,,,,,
1553360315.2155724,,,,,,,
1553360315.2155948,,,,,,,
1553360315.2156208,,,,,,,
1553360315.2157362,,,,,,,
1553360315.2157972,,,,,,,
1553360315.2158356,,,,,,,
1553360315.2158377,,,,,,,
1553360315.2158687,,,,,,,
1553360315.2159014,,,,,,,
1553360315.2160234,,,,,,,
1553360315.2160587,,,,,,,
1553360315.2160845,,,,,,,
1553360315.2160950,,,,,,,
1553360315.2161150,,,,,,,
1553360315.2162066,,,,,,,
1553360315.2162528,,,,,,,
1553360315.2162716,,,,,,,
1553360315.2164338,,,,,,,
1553360315.2169974,,,,,2396630.0,168161392.0,159889232.0
1553360315.2186115,836.080566406,806.666687012,790.952392578,863.479858398,,,
1553360315.2225106,853.406616211,811.501831055,796.996337891,865.091552734,,,
1553360315.2264094,821.978027344,811.501831055,803.443237305,815.53112793,,,
1553360315.2303083,803.040283203,809.487182617,801.025634766,807.875488281,,,
1553360315.2325966,,,,,2399047.5,168148496.0,159874720.0
1553360315.2342072,832.857116699,812.307678223,798.608032227,857.838806152,,,
1553360315.2345405,,,,,,,
1553360315.2354691,,,,,,,
1553360315.2357285,,,,,,,
1553360315.2381063,862.67401123,813.919433594,805.054931641,875.567749023,,,
1553360315.2420051,842.124511719,809.487182617,805.860778809,822.783874512,,,
1553360315.2459040,813.516479492,810.695983887,807.875488281,793.772888184,,,
1553360315.2481956,,,,,2399047.5,168150912.0,159915824.0
1553360315.2498028,833.663024902,811.098876953,806.666687012,836.483520508,,,
1553360315.2537019,873.15020752,811.904785156,809.084228516,873.956054688,,,
1553360315.2551024,,,,,,,
1553360315.2553620,,,,,,,
1553360315.2576008,859.85345459,811.098876953,809.890136719,840.109863281,,,
1553360315.2614996,819.157531738,808.681335449,805.860778809,793.772888184,,,
1553360315.2637949,,,,,2405494.5,168140432.0,159987552.0
1553360315.2653985,832.454223633,808.278381348,807.069580078,814.32232666,,,
1553360315.2692976,882.014648438,811.098876953,806.26373291,867.509155273,,,
1553360315.2697093,,,,,,,
1553360315.2731965,896.923095703,817.142883301,807.47253418,857.435913086,,,
1553360315.2747359,,,,,,,
1553360315.2749953,,,,,,,
1553360315.2770953,869.523803711,818.754577637,808.278381348,806.26373291,,,
1553360315.2793941,,,,,2398241.75,168064688.0,159850544.0
1553360315.2809942,858.644714355,817.948730469,813.113525391,811.904785156,,,
1553360315.2848933,900.14654541,815.934082031,811.501831055,865.494506836,,,
1553360315.2887921,919.890136719,810.293029785,806.666687012,873.15020752,,,
1553360315.2926910,877.582397461,805.860778809,806.666687012,827.619018555,,,
1553360315.2943695,,,,,,,
1553360315.2946289,,,,,,,
1553360315.2949934,,,,,2399853.5,168028432.0,159871504.0
1553360315.2965899,847.765563965,813.113525391,813.113525391,802.234436035,,,
1553360315.3004889,878.79119873,817.142883301,815.53112793,842.930419922,,,
1553360315.3043878,910.622680664,816.336975098,809.487182617,875.567749023,,,
1553360315.3048782,,,,,,,
1553360315.3082867,879.194152832,812.710632324,810.695983887,831.245422363,,,
1553360315.3105927,,,,,2391794.75,167996192.0,159786080.0
1553360315.3121855,842.930419922,813.516479492,815.934082031,794.175842285,,,
1553360315.3140030,,,,,,,
1553360315.3142622,,,,,,,
1553360315.3160846,870.329650879,818.754577637,818.351623535,835.274719238,,,
1553360315.3168194,,,,,,,
1553360315.3168194,,,,,,,
1553360315.3170457,,,,,,,
1553360315.3170681,,,,,,,
1553360315.3170941,,,,,,,
1553360315.3172095,,,,,,,
1553360315.3172703,,,,,,,
1553360315.3173108,,,,,,,
1553360315.3173418,,,,,,,
1553360315.3173745,,,,,,,
1553360315.3174963,,,,,,,
1553360315.3175318,,,,,,,
1553360315.3175576,,,,,,,
1553360315.3175879,,,,,,,
1553360315.3176794,,,,,,,
1553360315.3177257,,,,,,,
1553360315.3177443,,,,,,,
1553360315.3179064,,,,,,,
1553360315.3199835,904.981689453,813.113525391,819.963378906,882.820495605,,,
1553360315.3238823,889.26739502,806.666687012,820.769226074,855.018310547,,,
1553360315.3261919,,,,,2391794.75,167950256.0,159815904.0
1553360315.3277812,854.615356445,807.875488281,815.128234863,795.384643555,,,
1553360315.3316803,859.450561523,808.681335449,815.128234863,815.128234863,,,
1553360315.3336365,,,,,,,
1553360315.3338957,,,,,,,
1553360315.3355792,900.952392578,805.860778809,814.725280762,874.761901855,,,
1553360315.3394780,904.175842285,800.219787598,810.695983887,867.509155273,,,
1553360315.3400471,,,,,,,
1553360315.3417912,,,,,2393406.5,167884976.0,159795744.0
1553360315.3433769,863.479858398,800.622680664,809.487182617,811.904785156,,,
1553360315.3472760,859.450561523,806.26373291,809.890136719,813.919433594,,,
1553360315.3511748,898.131896973,809.890136719,811.098876953,875.164855957,,,
1553360315.3532701,,,,,,,
1553360315.3535292,,,,,,,
1553360315.3550737,914.249084473,812.307678223,811.098876953,882.820495605,,,
1553360315.3573904,,,,,2396630.0,167884176.0,159799776.0
1553360315.3589725,879.194152832,815.53112793,806.26373291,824.798522949,,,
1553360315.3628716,849.377319336,815.934082031,798.20513916,796.190490723,,,
1553360315.3667705,881.611694336,815.53112793,796.190490723,842.124511719,,,
1553360315.3706694,917.875488281,815.53112793,796.996337891,872.747253418,,,
1553360315.3729033,,,,,,,
1553360315.3729897,,,,,2386153.75,167873696.0,159762704.0
1553360315.3731625,,,,,,,
1553360315.3745682,890.073242188,817.545776367,799.41394043,830.036621094,,,
1553360315.3752160,,,,,,,
1553360315.3784673,844.945068359,812.307678223,802.637390137,796.190490723,,,
1553360315.3823662,856.630065918,808.681335449,807.47253418,840.109863281,,,
1553360315.3862650,896.520141602,817.545776367,811.501831055,883.626403809,,,
1553360315.3885887,,,,,2387765.5,167876112.0,159827984.0
1553360315.3901639,885.238098145,814.32232666,809.487182617,852.197814941,,,
1553360315.3925369,,,,,,,
1553360315.3927960,,,,,,,
1553360315.3940630,837.289367676,809.890136719,811.098876953,798.608032227,,,
1553360315.3979619,828.021972656,811.501831055,811.904785156,811.904785156,,,
1553360315.4018607,861.868103027,811.501831055,809.084228516,867.106201172,,,
1553360315.4041879,,,,,2389377.25,167868864.0,159757872.0
1553360315.4057596,867.509155273,812.307678223,812.307678223,855.018310547,,,
1553360315.4096587,821.575073242,808.681335449,809.084228516,799.41394043,,,
1553360315.4103849,,,,,,,
1553360315.4121704,,,,,,,
1553360315.4124296,,,,,,,
1553360315.4135575,800.219787598,808.681335449,801.428588867,812.710632324,,,
1553360315.4174564,841.318664551,815.934082031,803.443237305,865.494506836,,,
1553360315.4182925,,,,,,,
1553360315.4182925,,,,,,,
1553360315.4185188,,,,,,,
1553360315.4185417,,,,,,,
1553360315.4185674,,,,,,,
1553360315.4186828,,,,,,,
1553360315.4187436,,,,,,,
1553360315.4187839,,,,,,,
1553360315.4188151,,,,,,,
1553360315.4188476,,,,,,,
1553360315.4189694,,,,,,,
1553360315.4190047,,,,,,,
1553360315.4190304,,,,,,,
1553360315.4190607,,,,,,,
1553360315.4191520,,,,,,,
1553360315.4191983,,,,,,,
1553360315.4192169,,,,,,,
1553360315.4193788,,,,,,,
1553360315.4197872,,,,,2387765.5,167845488.0,159790912.0
1553360315.4213552,869.926757812,813.919433594,809.890136719,872.747253418,,,
1553360315.4252543,840.109863281,806.666687012,813.113525391,826.813171387,,,
1553360315.4291532,807.069580078,812.307678223,815.53112793,803.443237305,,,
1553360315.4318039,,,,,,,
1553360315.4320629,,,,,,,
1553360315.4330521,833.663024902,815.53112793,814.32232666,851.391967773,,,
1553360315.4353864,,,,,2392600.75,167813264.0,159772384.0
1553360315.4369509,867.106201172,810.695983887,811.098876953,885.238098145,,,
1553360315.4408500,843.333312988,815.53112793,810.293029785,842.124511719,,,
1553360315.4447489,806.26373291,818.754577637,808.681335449,788.937744141,,,
1553360315.4455538,,,,,,,
1553360315.4486477,813.113525391,814.725280762,806.666687012,813.516479492,,,
1553360315.4509857,,,,,2389377.25,167797136.0,159780432.0
1553360315.4514375,,,,,,,
1553360315.4516964,,,,,,,
1553360315.4525466,855.018310547,815.934082031,809.890136719,866.300354004,,,
1553360315.4564457,850.989013672,814.725280762,804.652038574,843.73626709,,,
1553360315.4603446,808.278381348,812.710632324,803.443237305,786.520141602,,,
1553360315.4642434,811.098876953,813.113525391,812.307678223,796.996337891,,,
1553360315.4665849,,,,,2394212.5,167772160.0,159840080.0
1553360315.4681423,848.974365234,812.307678223,809.084228516,853.809509277,,,
1553360315.4710710,,,,,,,
1553360315.4713297,,,,,,,
1553360315.4720414,851.391967773,810.293029785,803.846130371,862.67401123,,,
1553360315.4759402,811.501831055,806.666687012,809.890136719,806.26373291,,,
1553360315.4798391,792.161193848,803.443237305,809.890136719,786.520141602,,,
1553360315.4807227,,,,,,,
1553360315.4821842,,,,,2391794.75,167785056.0,159752240.0
1553360315.4837379,828.827819824,804.249084473,812.710632324,843.333312988,,,
1553360315.4876370,855.421264648,812.307678223,815.53112793,871.538452148,,,
1553360315.4907043,,,,,,,
1553360315.4909632,,,,,,,
1553360315.4915359,826.41027832,815.128234863,805.860778809,827.619018555,,,
1553360315.4954348,799.41394043,801.831481934,801.831481934,800.622680664,,,
1553360315.4977834,,,,,2394212.5,167773776.0,159869888.0
1553360315.4993336,817.142883301,798.20513916,801.428588867,838.901123047,,,
1553360315.5032327,849.377319336,806.666687012,800.622680664,879.597045898,,,
1553360315.5071316,850.183166504,811.501831055,807.47253418,848.974365234,,,
1553360315.5103378,,,,,,,
1553360315.5105968,,,,,,,
1553360315.5110304,813.919433594,812.710632324,806.26373291,803.040283203,,,
1553360315.5133827,,,,,2391794.75,167821312.0,159862640.0
1553360315.5149293,809.084228516,810.695983887,805.457885742,824.395629883,,,
1553360315.5158916,,,,,,,
1553360315.5188284,844.945068359,812.710632324,810.695983887,867.106201172,,,
1553360315.5197659,,,,,,,
1553360315.5197659,,,,,,,
1553360315.5199921,,,,,,,
1553360315.5200150,,,,,,,
1553360315.5200410,,,,,,,
1553360315.5201559,,,,,,,
1553360315.5202167,,,,,,,
1553360315.5202572,,,,,,,
1553360315.5202882,,,,,,,
1553360315.5203209,,,,,,,
1553360315.5204422,,,,,,,
1553360315.5204778,,,,,,,
1553360315.5205033,,,,,,,
1553360315.5205338,,,,,,,
1553360315.5206249,,,,,,,
1553360315.5206711,,,,,,,
1553360315.5206897,,,,,,,
1553360315.5208514,,,,,,,
1553360315.5227273,844.139221191,810.293029785,811.501831055,844.945068359,,,
1553360315.5266261,802.234436035,805.457885742,807.47253418,793.772888184,,,
1553360315.5289817,,,,,2386153.75,167811648.0,159802192.0
1553360315.5299714,,,,,,,
1553360315.5302300,,,,,,,
1553360315.5305250,792.161193848,804.652038574,803.443237305,796.593383789,,,
1553360315.5344241,838.901123047,806.26373291,803.040283203,853.003662109,,,
1553360315.5383229,860.659362793,803.846130371,797.802185059,861.868103027,,,
1553360315.5422218,825.201477051,801.025634766,801.428588867,807.47253418,,,
1553360315.5445809,,,,,2389377.25,167839040.0,159816704.0
1553360315.5461206,807.875488281,798.608032227,801.428588867,793.772888184,,,
1553360315.5496049,,,,,,,
1553360315.5498636,,,,,,,
1553360315.5500197,841.721618652,796.996337891,792.967041016,850.989013672,,,
1553360315.5510604,,,,,,,
1553360315.5539186,874.358947754,800.622680664,798.608032227,878.79119873,,,
1553360315.5578175,851.79486084,802.234436035,805.860778809,833.260070801,,,
1553360315.5601802,,,,,2396630.0,167824544.0,159856192.0
1553360315.5617163,813.113525391,802.234436035,803.443237305,806.26373291,,,
1553360315.5656154,833.260070801,807.875488281,803.443237305,844.139221191,,,
1553360315.5692384,,,,,,,
1553360315.5694971,,,,,,,
1553360315.5695143,879.597045898,806.666687012,801.428588867,875.164855957,,,
1553360315.5734131,868.717956543,804.652038574,796.593383789,849.377319336,,,
1553360315.5757794,,,,,2397436.0,167851136.0,159786880.0
1553360315.5773120,830.036621094,809.084228516,795.787536621,801.831481934,,,
1553360315.5812111,841.318664551,807.069580078,798.20513916,826.007324219,,,
1553360315.5851099,882.014648438,807.069580078,802.637390137,883.223449707,,,
1553360315.5862293,,,,,,,
1553360315.5888720,,,,,,,
1553360315.5890088,873.956054688,812.307678223,796.593383789,868.717956543,,,
1553360315.5891304,,,,,,,
1553360315.5913787,,,,,2389377.25,167830176.0,159759488.0
1553360315.5929077,822.783874512,811.098876953,792.161193848,811.501831055,,,
1553360315.5968068,813.516479492,810.695983887,798.20513916,805.054931641,,,
1553360315.6007056,858.644714355,811.501831055,795.787536621,856.630065918,,,
1553360315.6046045,877.985351562,811.501831055,794.578735352,872.747253418,,,
1553360315.6069779,,,,,2396630.0,167839040.0,159819920.0
1553360315.6085033,837.289367676,811.501831055,796.996337891,816.739929199,,,
1553360315.6085052,,,,,,,
1553360315.6087639,,,,,,,
1553360315.6124024,807.875488281,811.904785156,799.816833496,794.981689453,,,
1553360315.6163013,841.318664551,814.725280762,805.860778809,848.571411133,,,
1553360315.6202002,871.135559082,815.934082031,801.831481934,879.194152832,,,
1553360315.6212392,,,,,,,
1553360315.6212392,,,,,,,
1553360315.6213982,,,,,,,
1553360315.6214652,,,,,,,
1553360315.6214883,,,,,,,
1553360315.6215143,,,,,,,
1553360315.6216292,,,,,,,
1553360315.6216898,,,,,,,
1553360315.6217303,,,,,,,
1553360315.6217616,,,,,,,
1553360315.6217940,,,,,,,
1553360315.6219153,,,,,,,
1553360315.6219506,,,,,,,
1553360315.6219764,,,,,,,
1553360315.6220067,,,,,,,
1553360315.6220977,,,,,,,
1553360315.6221437,,,,,,,
1553360315.6221623,,,,,,,
1553360315.6223238,,,,,,,
1553360315.6225772,,,,,2395824.25,167825344.0,159808640.0
1553360315.6240990,848.571411133,815.128234863,795.384643555,824.798522949,,,
1553360315.6279981,818.754577637,817.142883301,797.399291992,773.626403809,,,
1553360315.6281388,,,,,,,
1553360315.6283975,,,,,,,
1553360315.6318970,835.274719238,822.380981445,804.652038574,820.769226074,,,
1553360315.6357958,875.164855957,821.172180176,806.26373291,872.344299316,,,
1553360315.6381764,,,,,2393406.5,167872896.0,159763520.0
1553360315.6396947,864.688659668,818.754577637,806.666687012,842.52746582,,,
1553360315.6435938,822.783874512,820.769226074,805.457885742,790.549438477,,,
1553360315.6474926,828.424926758,816.336975098,804.652038574,807.069580078,,,
1553360315.6477723,,,,,,,
1553360315.6480308,,,,,,,
1553360315.6513915,868.717956543,813.919433594,804.249084473,867.106201172,,,
1553360315.6537757,,,,,2394212.5,167864832.0,159807040.0
1553360315.6552904,876.776550293,817.142883301,806.26373291,854.212463379,,,
1553360315.6565673,,,,,,,
1553360315.6591895,842.124511719,817.545776367,807.875488281,796.996337891,,,
1553360315.6630883,826.007324219,817.142883301,803.040283203,792.564086914,,,
1553360315.6669872,856.630065918,819.560424805,794.578735352,847.362609863,,,
1553360315.6674058,,,,,,,
1553360315.6676643,,,,,,,
1553360315.6693747,,,,,2394212.5,167843072.0,159749008.0
1553360315.6708860,876.373596191,818.754577637,798.20513916,872.747253418,,,
1553360315.6747851,845.347961426,813.919433594,809.487182617,819.963378906,,,
1553360315.6786840,813.919433594,807.875488281,804.652038574,793.369934082,,,
1553360315.6825829,840.109863281,799.41394043,796.190490723,844.139221191,,,
1553360315.6849740,,,,,2397436.0,167889824.0,159832016.0
1553360315.6864817,875.567749023,795.787536621,797.802185059,875.567749023,,,
1553360315.6870394,,,,,,,
1553360315.6872976,,,,,,,
1553360315.6903808,859.450561523,801.428588867,803.040283203,836.483520508,,,
1553360315.6917362,,,,,,,
1553360315.6942797,817.545776367,801.831481934,800.219787598,796.996337891,,,
1553360315.6981785,824.395629883,794.175842285,794.981689453,829.230773926,,,
1553360315.7005732,,,,,2397436.0,167924464.0,159812672.0
1553360315.7020774,863.479858398,795.384643555,800.622680664,878.79119873,,,
1553360315.7059765,853.003662109,797.802185059,801.831481934,857.435913086,,,
1553360315.7066729,,,,,,,
1553360315.7069311,,,,,,,
1553360315.7098753,804.652038574,793.369934082,797.399291992,806.666687012,,,
1553360315.7137742,801.428588867,794.578735352,801.025634766,811.098876953,,,
1553360315.7161725,,,,,2395824.25,167873696.0,159774000.0
1553360315.7176731,844.945068359,799.41394043,801.831481934,860.659362793,,,
1553360315.7215722,858.241760254,801.831481934,810.293029785,865.897460938,,,
1553360315.7227125,,,,,,,
1553360315.7227125,,,,,,,
1553360315.7229385,,,,,,,
1553360315.7229619,,,,,,,
1553360315.7229877,,,,,,,
1553360315.7231026,,,,,,,
1553360315.7231631,,,,,,,
1553360315.7232037,,,,,,,
1553360315.7232347,,,,,,,
1553360315.7232671,,,,,,,
1553360315.7233884,,,,,,,
1553360315.7234235,,,,,,,
1553360315.7234492,,,,,,,
1553360315.7234795,,,,,,,
1553360315.7235703,,,,,,,
1553360315.7236164,,,,,,,
1553360315.7236352,,,,,,,
1553360315.7237964,,,,,,,
1553360315.7254710,812.307678223,802.234436035,814.725280762,806.666687012,,,
1553360315.7263062,,,,,,,
1553360315.7265646,,,,,,,
1553360315.7269051,,,,,,,
1553360315.7293699,781.684997559,800.622680664,802.234436035,794.981689453,,,
1553360315.7317717,,,,,2392600.75,167863216.0,159770768.0
1553360315.7332687,819.560424805,801.428588867,806.666687012,850.183166504,,,
1553360315.7371678,844.542114258,803.443237305,810.695983887,868.315002441,,,
1553360315.7410667,808.278381348,797.399291992,805.054931641,821.978027344,,,
1553360315.7449656,782.893798828,797.802185059,805.860778809,788.131896973,,,
1553360315.7459397,,,,,,,
1553360315.7461979,,,,,,,
1553360315.7473710,,,,,2399047.5,167927696.0,159806224.0
1553360315.7488644,814.725280762,806.666687012,809.487182617,825.604370117,,,
1553360315.7527635,855.018310547,809.487182617,811.501831055,865.897460938,,,
1553360315.7566624,843.73626709,810.293029785,808.278381348,829.230773926,,,
1553360315.7605612,804.249084473,812.307678223,798.20513916,777.655700684,,,
1553360315.7620740,,,,,,,
1553360315.7629702,,,,,2393406.5,167896256.0,159804608.0
1553360315.7644601,817.142883301,814.32232666,799.010986328,809.487182617,,,
1553360315.7655733,,,,,,,
1553360315.7658315,,,,,,,
1553360315.7683592,860.659362793,817.948730469,807.069580078,871.538452148,,,
1553360315.7722580,862.271057129,815.128234863,811.098876953,852.600708008,,,
1553360315.7761569,829.633728027,811.098876953,809.487182617,800.622680664,,,
1553360315.7785695,,,,,2398241.75,167943008.0,159864256.0
1553360315.7800558,827.216125488,811.904785156,808.681335449,816.336975098,,,
1553360315.7839549,874.358947754,815.128234863,812.710632324,869.523803711,,,
1553360315.7852068,,,,,,,
1553360315.7854650,,,,,,,
1553360315.7878537,888.864440918,813.516479492,807.069580078,873.15020752,,,
1553360315.7917526,848.974365234,811.501831055,804.249084473,820.769226074,,,
1553360315.7941687,,,,,2394212.5,167947040.0,159794144.0
1553360315.7956514,834.065917969,813.113525391,807.069580078,806.666687012,,,
1553360315.7972429,,,,,,,
1553360315.7995505,856.630065918,805.860778809,801.025634766,860.256408691,,,
1553360315.8034494,873.15020752,801.831481934,801.428588867,877.179504395,,,
1553360315.8048403,,,,,,,
1553360315.8050983,,,,,,,
1553360315.8073483,851.79486084,809.890136719,805.860778809,820.769226074,,,
1553360315.8097677,,,,,2395824.25,167929312.0,159896480.0
1553360315.8112471,817.948730469,806.26373291,801.025634766,786.1171875,,,
1553360315.8151462,834.46887207,799.816833496,800.219787598,825.604370117,,,
1553360315.8190451,866.703308105,801.025634766,800.622680664,865.897460938,,,
1553360315.8229439,848.168518066,801.831481934,801.831481934,837.692321777,,,
1553360315.8241856,,,,,,,
1553360315.8241856,,,,,,,
1553360315.8244119,,,,,,,
1553360315.8244352,,,,,,,
1553360315.8244610,,,,,,,
1553360315.8244739,,,,,,,
1553360315.8245757,,,,,,,
1553360315.8246362,,,,,,,
1553360315.8246768,,,,,,,
1553360315.8247080,,,,,,,
1553360315.8247318,,,,,,,
1553360315.8247404,,,,,,,
1553360315.8248613,,,,,,,
1553360315.8248966,,,,,,,
1553360315.8249223,,,,,,,
1553360315.8249524,,,,,,,
1553360315.8250432,,,,,,,
1553360315.8250892,,,,,,,
1553360315.8251078,,,,,,,
1553360315.8252687,,,,,,,
1553360315.8253670,,,,,2395824.25,167943808.0,159928720.0
1553360315.8268428,811.098876953,804.249084473,804.652038574,796.996337891,,,
1553360315.8307419,816.739929199,809.084228516,802.234436035,827.619018555,,,
1553360315.8324118,,,,,,,
1553360315.8346407,857.435913086,809.084228516,805.054931641,872.747253418,,,
1553360315.8385396,869.523803711,809.890136719,813.113525391,856.630065918,,,
1553360315.8409662,,,,,2395018.25,167908352.0,159855392.0
1553360315.8424385,839.304016113,815.128234863,812.710632324,808.278381348,,,
1553360315.8441072,,,,,,,
1553360315.8443651,,,,,,,
1553360315.8463376,833.260070801,813.113525391,805.860778809,806.666687012,,,
1553360315.8502364,865.494506836,812.307678223,809.084228516,863.076904297,,,
1553360315.8541353,881.20880127,812.307678223,812.307678223,874.358947754,,,
1553360315.8565655,,,,,2399853.5,168002640.0,159891648.0
1553360315.8580341,848.974365234,805.860778809,802.637390137,820.366271973,,,
1553360315.8619332,822.380981445,802.234436035,800.219787598,795.384643555,,,
1553360315.8637407,,,,,,,
1553360315.8639987,,,,,,,
1553360315.8658321,853.003662109,804.652038574,803.040283203,838.498168945,,,
1553360315.8675807,,,,,,,
1553360315.8697309,892.490844727,808.278381348,804.249084473,870.73260498,,,
1553360315.8721647,,,,,2400659.25,168021168.0,159879568.0
1553360315.8736298,867.106201172,807.875488281,804.652038574,828.424926758,,,
1553360315.8775289,830.036621094,812.710632324,801.428588867,785.714294434,,,
1553360315.8814278,851.391967773,813.516479492,796.190490723,818.351623535,,,
1553360315.8833742,,,,,,,
1553360315.8836322,,,,,,,
1553360315.8853266,890.073242188,806.26373291,803.443237305,866.703308105,,,
1553360315.8877640,,,,,2396630.0,167961536.0,159790112.0
1553360315.8892255,874.358947754,803.443237305,806.666687012,847.362609863,,,
1553360315.8931246,833.663024902,807.875488281,806.666687012,794.578735352,,,
1553360315.8970234,834.871765137,806.666687012,808.278381348,806.666687012,,,
1553360315.9009223,868.315002441,803.443237305,813.919433594,861.062255859,,,
1553360315.9027495,,,,,,,
1553360315.9030077,,,,,,,
1553360315.9032655,,,,,,,
1553360315.9033632,,,,,2405494.5,168065488.0,159889232.0
1553360315.9048212,869.120849609,801.428588867,813.113525391,852.600708008,,,
1553360315.9087203,829.633728027,800.219787598,794.981689453,798.20513916,,,
1553360315.9126191,812.710632324,801.025634766,792.967041016,794.981689453,,,
1553360315.9165180,844.945068359,801.025634766,803.846130371,848.571411133,,,
1553360315.9189625,,,,,2409523.75,168009088.0,159931936.0
1553360315.9204168,865.897460938,804.249084473,803.443237305,872.747253418,,,
1553360315.9226413,,,,,,,
1553360315.9228990,,,,,,,
1553360315.9243159,828.424926758,803.443237305,803.443237305,818.754577637,,,
1553360315.9256589,,,,,,,
1553360315.9256589,,,,,,,
1553360315.9258850,,,,,,,
1553360315.9259086,,,,,,,
1553360315.9259346,,,,,,,
1553360315.9260490,,,,,,,
1553360315.9261096,,,,,,,
1553360315.9261498,,,,,,,
1553360315.9261811,,,,,,,
1553360315.9262135,,,,,,,
1553360315.9263344,,,,,,,
1553360315.9263694,,,,,,,
1553360315.9263952,,,,,,,
1553360315.9264255,,,,,,,
1553360315.9265161,,,,,,,
1553360315.9265618,,,,,,,
1553360315.9265807,,,,,,,
1553360315.9267414,,,,,,,
1553360315.9282148,796.190490723,801.025634766,801.428588867,787.728942871,,,
1553360315.9321136,825.604370117,803.846130371,802.637390137,836.080566406,,,
1553360315.9345617,,,,,2402271.0,168071136.0,159886000.0
1553360315.9360125,854.615356445,804.652038574,800.219787598,864.285705566,,,
1553360315.9379184,,,,,,,
1553360315.9399116,825.604370117,799.010986328,794.578735352,821.978027344,,,
1553360315.9422748,,,,,,,
1553360315.9425325,,,,,,,
1553360315.9438105,787.728942871,797.802185059,802.637390137,781.684997559,,,
1553360315.9477093,807.47253418,803.846130371,810.695983887,819.560424805,,,
1553360315.9501610,,,,,2401465.25,168084832.0,159907760.0
1553360315.9516082,852.600708008,806.26373291,806.26373291,865.091552734,,,
1553360315.9555073,850.989013672,804.249084473,802.637390137,835.274719238,,,
1553360315.9594061,806.26373291,808.681335449,805.860778809,786.923095703,,,
1553360315.9619081,,,,,,,
1553360315.9621658,,,,,,,
1553360315.9633050,799.010986328,804.249084473,809.084228516,803.846130371,,,
1553360315.9657600,,,,,2396630.0,168057440.0,159848128.0
1553360315.9672039,848.974365234,795.384643555,807.069580078,857.032958984,,,
1553360315.9711030,867.912109375,799.010986328,807.47253418,855.018310547,,,
1553360315.9730873,,,,,,,
1553360315.9750018,830.439575195,805.457885742,812.307678223,800.219787598,,,
1553360315.9789007,815.53112793,807.069580078,809.487182617,799.010986328,,,
1553360315.9813592,,,,,2397436.0,168039712.0,159833632.0
1553360315.9815416,,,,,,,
1553360315.9817994,,,,,,,
1553360315.9827995,857.838806152,807.875488281,810.293029785,862.67401123,,,
1553360315.9866986,897.728942871,811.098876953,815.53112793,875.567749023,,,
1553360315.9905975,874.761901855,807.47253418,815.128234863,825.201477051,,,
1553360315.9944963,846.959716797,798.20513916,811.501831055,806.26373291,,,
1553360315.9969585,,,,,2406300.25,168064688.0,159890848.0
1553360315.9983952,872.747253418,800.622680664,807.875488281,856.630065918,,,
1553360316.0011752,,,,,,,
1553360316.0014327,,,,,,,
1553360316.0022943,913.040283203,807.069580078,808.278381348,893.296691895,,,
1553360316.0061932,896.1171875,804.652038574,805.860778809,850.58605957,,,
1553360316.0082562,,,,,,,
1553360316.0100920,856.630065918,803.443237305,803.040283203,808.681335449,,,
1553360316.0125577,,,,,2399853.5,167991360.0,159822352.0
1553360316.0139909,871.538452148,807.069580078,808.681335449,840.109863281,,,
1553360316.0178900,915.457885742,808.681335449,813.113525391,890.879150391,,,
1553360316.0208087,,,,,,,
1553360316.0210662,,,,,,,
1553360316.0217888,906.593383789,798.20513916,816.336975098,870.329650879,,,
1553360316.0256877,854.615356445,792.967041016,813.516479492,815.128234863,,,
1553360316.0271323,,,,,,,
1553360316.0271323,,,,,,,
1553360316.0273583,,,,,,,
1553360316.0273819,,,,,,,
1553360316.0274079,,,,,,,
1553360316.0275223,,,,,,,
1553360316.0275826,,,,,,,
1553360316.0276232,,,,,,,
1553360316.0276542,,,,,,,
1553360316.0276866,,,,,,,
1553360316.0278072,,,,,,,
1553360316.0278425,,,,,,,
1553360316.0278680,,,,,,,
1553360316.0278983,,,,,,,
1553360316.0279889,,,,,,,
1553360316.0280347,,,,,,,
1553360316.0280533,,,,,,,
1553360316.0281570,,,,,2398241.75,167940592.0,159827184.0
1553360316.0282137,,,,,,,
1553360316.0295866,847.362609863,798.608032227,811.501831055,819.157531738,,,
1553360316.0334857,884.835144043,802.637390137,811.098876953,868.717956543,,,
1553360316.0373845,893.296691895,801.428588867,805.054931641,873.956054688,,,
1553360316.0404422,,,,,,,
1553360316.0406997,,,,,,,
1553360316.0412834,853.809509277,803.846130371,799.816833496,825.201477051,,,
1553360316.0434253,,,,,,,
1553360316.0437562,,,,,2399853.5,167895456.0,159804608.0
1553360316.0451822,832.857116699,806.26373291,801.428588867,799.41394043,,,
1553360316.0490813,871.538452148,809.890136719,813.113525391,842.930419922,,,
1553360316.0529802,903.772888184,813.919433594,817.545776367,876.373596191,,,
1553360316.0568790,870.73260498,810.695983887,818.754577637,830.439575195,,,
1553360316.0593555,,,,,2399047.5,167880144.0,159811056.0
1553360316.0600758,,,,,,,
1553360316.0603330,,,,,,,
1553360316.0607779,832.454223633,808.681335449,820.366271973,790.952392578,,,
1553360316.0646770,849.377319336,807.47253418,817.545776367,828.021972656,,,
1553360316.0685759,878.79119873,804.249084473,811.501831055,874.358947754,,,
1553360316.0724747,865.091552734,802.637390137,810.293029785,847.362609863,,,
1553360316.0749547,,,,,2395018.25,167820512.0,159738528.0
1553360316.0763736,834.871765137,807.47253418,815.128234863,799.41394043,,,
1553360316.0785942,,,,,,,
1553360316.0797091,,,,,,,
1553360316.0799665,,,,,,,
1553360316.0802727,844.139221191,813.516479492,813.919433594,825.604370117,,,
1553360316.0841715,877.179504395,805.457885742,809.487182617,875.164855957,,,
1553360316.0880704,875.970703125,800.219787598,806.666687012,857.435913086,,,
1553360316.0905540,,,,,2395018.25,167801984.0,159757872.0
1553360316.0919693,835.274719238,805.054931641,806.666687012,799.010986328,,,
1553360316.0958683,821.575073242,809.890136719,808.681335449,805.860778809,,,
1553360316.0993426,,,,,,,
1553360316.0996001,,,,,,,
1553360316.0997672,856.227111816,807.47253418,807.875488281,864.688659668,,,
1553360316.1036661,877.179504395,811.098876953,810.695983887,869.120849609,,,
1553360316.1061530,,,,,2395824.25,167830992.0,159794944.0
1553360316.1075649,844.139221191,812.307678223,812.307678223,817.948730469,,,
1553360316.1114640,813.516479492,809.084228516,816.336975098,801.428588867,,,
1553360316.1137631,,,,,,,
1553360316.1153629,838.901123047,810.695983887,816.739929199,848.168518066,,,
1553360316.1189761,,,,,,,
1553360316.1192334,,,,,,,
1553360316.1192617,861.465209961,810.695983887,815.934082031,875.567749023,,,
1553360316.1217523,,,,,2394212.5,167775392.0,159747392.0
1553360316.1231606,836.886474609,811.501831055,817.142883301,834.871765137,,,
1553360316.1270597,803.443237305,808.681335449,807.875488281,797.399291992,,,
1553360316.1286054,,,,,,,
1553360316.1286054,,,,,,,
1553360316.1288314,,,,,,,
1553360316.1288555,,,,,,,
1553360316.1288812,,,,,,,
1553360316.1289954,,,,,,,
1553360316.1290557,,,,,,,
1553360316.1290963,,,,,,,
1553360316.1291275,,,,,,,
1553360316.1291599,,,,,,,
1553360316.1292803,,,,,,,
1553360316.1293154,,,,,,,
1553360316.1293411,,,,,,,
1553360316.1293712,,,,,,,
1553360316.1294615,,,,,,,
1553360316.1295073,,,,,,,
1553360316.1295259,,,,,,,
1553360316.1296864,,,,,,,
1553360316.1309586,815.53112793,803.846130371,797.399291992,834.46887207,,,
1553360316.1348574,860.659362793,808.681335449,805.054931641,869.523803711,,,
1553360316.1373515,,,,,2390989.0,167761680.0,159748208.0
1553360316.1386096,,,,,,,
1553360316.1387563,849.377319336,813.516479492,807.069580078,840.109863281,,,
1553360316.1388669,,,,,,,
1553360316.1426554,798.20513916,815.934082031,802.234436035,796.190490723,,,
1553360316.1465542,803.443237305,815.934082031,804.249084473,815.128234863,,,
1553360316.1489320,,,,,,,
1553360316.1504531,845.750915527,814.32232666,801.025634766,871.94140625,,,
1553360316.1529508,,,,,2390989.0,167788272.0,159675680.0
1553360316.1543519,847.765563965,813.113525391,793.369934082,863.8828125,,,
1553360316.1582432,,,,,,,
1553360316.1582510,808.681335449,808.278381348,791.758239746,815.128234863,,,
1553360316.1585002,,,,,,,
1553360316.1621499,798.20513916,807.875488281,796.996337891,815.53112793,,,
1553360316.1660488,838.901123047,807.47253418,804.249084473,856.227111816,,,
1553360316.1685500,,,,,2390989.0,167810032.0,159766736.0
1553360316.1699476,859.047607422,812.307678223,808.681335449,869.523803711,,,
1553360316.1738467,824.395629883,810.695983887,810.695983887,821.172180176,,,
1553360316.1777456,796.593383789,801.428588867,811.501831055,790.952392578,,,
1553360316.1778767,,,,,,,
1553360316.1781337,,,,,,,
1553360316.1816444,820.366271973,806.26373291,815.53112793,833.663024902,,,
1553360316.1841009,,,,,,,
1553360316.1841493,,,,,2395018.25,167760880.0,159730480.0
1553360316.1855433,845.750915527,809.084228516,816.336975098,864.285705566,,,
1553360316.1894424,811.098876953,805.860778809,810.695983887,818.754577637,,,
1553360316.1933413,773.223449707,804.652038574,806.26373291,780.879150391,,,
1553360316.1972401,791.355285645,801.428588867,803.846130371,819.157531738,,,
1553360316.1975100,,,,,,,
1553360316.1977673,,,,,,,
1553360316.1997485,,,,,2389377.25,167718176.0,159728864.0
1553360316.2011390,838.901123047,807.069580078,803.443237305,867.509155273,,,
1553360316.2050381,844.139221191,816.336975098,809.487182617,849.780212402,,,
1553360316.2089369,799.816833496,812.710632324,811.098876953,799.816833496,,,
1553360316.2128358,795.787536621,808.681335449,807.47253418,807.47253418,,,
1553360316.2153478,,,,,2392600.75,167745568.0,159782864.0
1553360316.2167346,834.46887207,812.307678223,805.054931641,855.018310547,,,
1553360316.2171435,,,,,,,
1553360316.2174006,,,,,,,
1553360316.2192698,,,,,,,
1553360316.2206337,835.274719238,811.904785156,796.593383789,853.809509277,,,
1553360316.2245326,791.758239746,807.875488281,795.787536621,792.161193848,,,
1553360316.2284315,780.879150391,807.875488281,803.846130371,783.699645996,,,
1553360316.2300787,,,,,,,
1553360316.2300787,,,,,,,
1553360316.2303047,,,,,,,
1553360316.2303288,,,,,,,
1553360316.2303545,,,,,,,
1553360316.2304688,,,,,,,
1553360316.2305291,,,,,,,
1553360316.2305696,,,,,,,
1553360316.2306006,,,,,,,
1553360316.2306330,,,,,,,
1553360316.2307534,,,,,,,
1553360316.2307885,,,,,,,
1553360316.2308140,,,,,,,
1553360316.2308440,,,,,,,
1553360316.2309344,,,,,,,
1553360316.2309470,,,,,2395018.25,167735088.0,159759488.0
1553360316.2309802,,,,,,,
1553360316.2309988,,,,,,,
1553360316.2311587,,,,,,,
1553360316.2323303,824.798522949,807.069580078,807.875488281,845.347961426,,,
1553360316.2362294,849.780212402,806.666687012,806.666687012,863.479858398,,,
1553360316.2367771,,,,,,,
1553360316.2370341,,,,,,,
1553360316.2401283,822.380981445,805.860778809,804.249084473,812.710632324,,,
1553360316.2440271,796.593383789,801.025634766,799.816833496,784.102539062,,,
1553360316.2465460,,,,,2394212.5,167779408.0,159778832.0
1553360316.2479260,822.380981445,799.816833496,799.816833496,834.065917969,,,
1553360316.2518251,855.824157715,800.622680664,805.054931641,885.641052246,,,
1553360316.2544386,,,,,,,
1553360316.2557240,834.871765137,800.219787598,807.875488281,844.139221191,,,
1553360316.2564106,,,,,,,
1553360316.2566676,,,,,,,
1553360316.2596228,799.010986328,806.26373291,803.040283203,792.967041016,,,
1553360316.2621453,,,,,2386959.75,167768944.0,159798976.0
1553360316.2635217,819.560424805,808.278381348,804.249084473,825.604370117,,,
1553360316.2674208,860.256408691,805.860778809,807.47253418,879.597045898,,,
1553360316.2713196,853.406616211,804.652038574,810.695983887,860.256408691,,,
1553360316.2752185,815.128234863,805.054931641,817.545776367,805.860778809,,,
1553360316.2760441,,,,,,,
1553360316.2763009,,,,,,,
1553360316.2777445,,,,,2391794.75,167801168.0,159788496.0
1553360316.2791173,807.875488281,806.666687012,813.113525391,822.380981445,,,
1553360316.2830164,851.79486084,810.695983887,812.307678223,877.582397461,,,
1553360316.2869153,867.106201172,810.293029785,819.963378906,874.358947754,,,
1553360316.2896075,,,,,,,
1553360316.2908142,820.769226074,804.249084473,817.948730469,821.575073242,,,
1553360316.2933438,,,,,2395018.25,167765712.0,159787696.0
1553360316.2947130,800.622680664,801.831481934,809.890136719,817.948730469,,,
1553360316.2956777,,,,,,,
1553360316.2959344,,,,,,,
1553360316.2986121,837.289367676,807.069580078,809.084228516,861.465209961,,,
1553360316.3025110,871.135559082,812.307678223,813.919433594,871.94140625,,,
1553360316.3064098,838.901123047,811.098876953,816.739929199,830.439575195,,,
1553360316.3089430,,,,,2398241.75,167768128.0,159801392.0
1553360316.3103087,797.802185059,807.069580078,811.501831055,807.875488281,,,
1553360316.3142078,821.575073242,804.652038574,809.890136719,843.73626709,,,
1553360316.3153110,,,,,,,
1553360316.3155680,,,,,,,
1553360316.3181067,852.600708008,800.622680664,805.054931641,879.597045898,,,
1553360316.3220055,832.857116699,801.025634766,799.010986328,842.52746582,,,
1553360316.3245423,,,,,2395018.25,167749600.0,159786880.0
1553360316.3247764,,,,,,,
1553360316.3259044,794.981689453,807.875488281,799.816833496,795.384643555,,,
1553360316.3298035,803.846130371,806.666687012,803.846130371,826.41027832,,,
1553360316.3315520,,,,,,,
1553360316.3315520,,,,,,,
1553360316.3317778,,,,,,,
1553360316.3318021,,,,,,,
1553360316.3318281,,,,,,,
1553360316.3319421,,,,,,,
1553360316.3320022,,,,,,,
1553360316.3320427,,,,,,,
1553360316.3320739,,,,,,,
1553360316.3321061,,,,,,,
1553360316.3322263,,,,,,,
1553360316.3322613,,,,,,,
1553360316.3322871,,,,,,,
1553360316.3323171,,,,,,,
1553360316.3324072,,,,,,,
1553360316.3324528,,,,,,,
1553360316.3324714,,,,,,,
1553360316.3326311,,,,,,,
1553360316.3337023,838.498168945,801.831481934,801.428588867,876.373596191,,,
1553360316.3349445,,,,,,,
1553360316.3352013,,,,,,,
1553360316.3376012,835.67767334,802.637390137,799.010986328,864.688659668,,,
1553360316.3401415,,,,,2395018.25,167792304.0,159774800.0
1553360316.3415000,796.190490723,800.622680664,799.41394043,813.516479492,,,
1553360316.3453991,788.131896973,801.831481934,803.443237305,807.875488281,,,
1553360316.3492980,831.648376465,806.666687012,802.637390137,854.615356445,,,
1553360316.3531969,843.333312988,809.084228516,803.443237305,857.838806152,,,
1553360316.3545780,,,,,,,
1553360316.3548348,,,,,,,
1553360316.3557408,,,,,2393406.5,167797136.0,159757072.0
1553360316.3570957,802.637390137,809.084228516,804.652038574,807.875488281,,,
1553360316.3599453,,,,,,,
1553360316.3609948,781.684997559,809.487182617,804.249084473,794.981689453,,,
1553360316.3648937,813.516479492,808.278381348,807.875488281,847.362609863,,,
1553360316.3687925,850.989013672,807.069580078,810.695983887,879.597045898,,,
1553360316.3713400,,,,,2394212.5,167799568.0,159818320.0
1553360316.3726914,832.051269531,810.695983887,805.457885742,836.080566406,,,
1553360316.3742115,,,,,,,
1553360316.3744681,,,,,,,
1553360316.3765905,792.967041016,810.293029785,801.428588867,805.860778809,,,
1553360316.3804893,811.501831055,808.681335449,805.457885742,844.542114258,,,
1553360316.3843882,852.197814941,809.487182617,810.293029785,877.985351562,,,
1553360316.3869390,,,,,2395824.25,167793920.0,159861824.0
1553360316.3882871,836.080566406,801.831481934,805.054931641,842.52746582,,,
1553360316.3921862,795.787536621,800.622680664,803.846130371,784.908447266,,,
1553360316.3938451,,,,,,,
1553360316.3941016,,,,,,,
1553360316.3951142,,,,,,,
1553360316.3960850,802.637390137,808.278381348,804.249084473,805.054931641,,,
1553360316.3999839,840.915771484,804.249084473,800.622680664,868.717956543,,,
1553360316.4025383,,,,,2394212.5,167843072.0,159812672.0
1553360316.4038827,847.765563965,797.802185059,801.831481934,849.780212402,,,
1553360316.4077818,808.681335449,798.608032227,798.608032227,785.714294434,,,
1553360316.4116807,793.772888184,797.399291992,796.593383789,786.923095703,,,
1553360316.4134786,,,,,,,
1553360316.4137352,,,,,,,
1553360316.4155796,830.439575195,796.996337891,796.190490723,843.333312988,,,
1553360316.4181376,,,,,2397436.0,167833408.0,159808640.0
1553360316.4194784,857.032958984,800.622680664,797.399291992,857.032958984,,,
1553360316.4233775,823.58972168,803.040283203,796.190490723,808.278381348,,,
1553360316.4272764,799.41394043,807.47253418,793.772888184,792.161193848,,,
1553360316.4302833,,,,,,,
1553360316.4311752,842.124511719,807.47253418,805.054931641,848.571411133,,,
1553360316.4330254,,,,,,,
1553360316.4330254,,,,,,,
1553360316.4331119,,,,,,,
1553360316.4332511,,,,,,,
1553360316.4332757,,,,,,,
1553360316.4333014,,,,,,,
1553360316.4333684,,,,,,,
1553360316.4334152,,,,,,,
1553360316.4334753,,,,,,,
1553360316.4335160,,,,,,,
1553360316.4335470,,,,,,,
1553360316.4335794,,,,,,,
1553360316.4336994,,,,,,,
1553360316.4337344,,,,,,,
1553360316.4337368,,,,,2397436.0,167840656.0,159773184.0
1553360316.4337599,,,,,,,
1553360316.4337900,,,,,,,
1553360316.4338799,,,,,,,
1553360316.4339256,,,,,,,
1553360316.4339442,,,,,,,
1553360316.4341037,,,,,,,
1553360316.4350741,873.956054688,801.428588867,810.695983887,875.164855957,,,
1553360316.4389732,844.945068359,802.234436035,809.487182617,830.036621094,,,
1553360316.4428720,810.293029785,802.637390137,807.069580078,784.505493164,,,
1553360316.4467709,823.186828613,801.025634766,805.860778809,815.128234863,,,
1553360316.4493361,,,,,2390989.0,167822128.0,159817504.0
1553360316.4506698,857.435913086,801.025634766,806.26373291,866.703308105,,,
1553360316.4527454,,,,,,,
1553360316.4530020,,,,,,,
1553360316.4545689,851.79486084,804.249084473,803.443237305,842.930419922,,,
1553360316.4584677,805.860778809,804.652038574,799.010986328,793.772888184,,,
1553360316.4623666,802.234436035,804.652038574,800.219787598,817.545776367,,,
1553360316.4649353,,,,,2388571.5,167855968.0,159829600.0
1553360316.4654522,,,,,,,
1553360316.4662654,846.556762695,807.47253418,805.860778809,866.703308105,,,
1553360316.4701645,857.435913086,806.26373291,804.652038574,854.212463379,,,
1553360316.4723790,,,,,,,
1553360316.4726355,,,,,,,
1553360316.4740634,822.783874512,808.278381348,806.26373291,800.219787598,,,
1553360316.4779623,804.249084473,805.054931641,807.875488281,801.025634766,,,
1553360316.4805346,,,,,2402271.0,167895456.0,159829600.0
1553360316.4818611,838.498168945,805.457885742,811.098876953,850.183166504,,,
1553360316.4857602,866.300354004,813.113525391,811.098876953,866.300354004,,,
1553360316.4896591,831.648376465,814.725280762,805.457885742,830.036621094,,,
1553360316.4920125,,,,,,,
1553360316.4922688,,,,,,,
1553360316.4935579,798.20513916,813.919433594,807.875488281,800.622680664,,,
1553360316.4961338,,,,,2399047.5,167875312.0,159847328.0
1553360316.4974568,831.648376465,816.336975098,811.501831055,834.065917969,,,
1553360316.5006211,,,,,,,
1553360316.5013559,871.538452148,820.366271973,814.725280762,872.747253418,,,
1553360316.5052547,857.032958984,820.366271973,815.934082031,835.274719238,,,
1553360316.5091536,826.41027832,815.934082031,814.725280762,787.32598877,,,
1553360316.5116460,,,,,,,
1553360316.5117331,,,,,2399047.5,167891424.0,159836848.0
1553360316.5119023,,,,,,,
1553360316.5130525,838.095214844,814.32232666,815.934082031,818.754577637,,,
1553360316.5169516,877.582397461,816.739929199,817.545776367,880.402954102,,,
1553360316.5208504,875.164855957,821.575073242,817.948730469,862.67401123,,,
1553360316.5247493,835.274719238,822.380981445,811.501831055,806.26373291,,,
1553360316.5273321,,,,,2396630.0,167888208.0,159816704.0
1553360316.5286481,832.051269531,815.128234863,808.681335449,813.516479492,,,
1553360316.5312796,,,,,,,
1553360316.5315356,,,,,,,
1553360316.5325472,873.956054688,817.142883301,817.545776367,867.912109375,,,
1553360316.5344985,,,,,,,
1553360316.5344985,,,,,,,
1553360316.5347245,,,,,,,
1553360316.5347490,,,,,,,
1553360316.5347748,,,,,,,
1553360316.5348885,,,,,,,
1553360316.5349486,,,,,,,
1553360316.5349891,,,,,,,
1553360316.5350204,,,,,,,
1553360316.5350525,,,,,,,
1553360316.5351722,,,,,,,
1553360316.5352073,,,,,,,
1553360316.5352328,,,,,,,
1553360316.5352628,,,,,,,
1553360316.5353527,,,,,,,
1553360316.5353982,,,,,,,
1553360316.5354168,,,,,,,
1553360316.5355761,,,,,,,
1553360316.5357900,,,,,,,
1553360316.5364461,891.684997559,819.157531738,816.739929199,871.135559082,,,
1553360316.5403450,849.780212402,816.336975098,807.47253418,812.307678223,,,
1553360316.5429313,,,,,2396630.0,167844688.0,159758688.0
1553360316.5442438,823.186828613,812.307678223,807.069580078,799.816833496,,,
1553360316.5481429,855.824157715,808.278381348,803.846130371,852.600708008,,,
1553360316.5509129,,,,,,,
1553360316.5511692,,,,,,,
1553360316.5520418,877.985351562,812.307678223,808.278381348,871.135559082,,,
1553360316.5559406,844.945068359,811.904785156,813.516479492,819.963378906,,,
1553360316.5585306,,,,,2402271.0,167889008.0,159838464.0
1553360316.5598395,810.293029785,809.487182617,814.725280762,788.937744141,,,
1553360316.5637386,834.46887207,809.487182617,819.963378906,840.512817383,,,
1553360316.5676374,869.926757812,806.26373291,818.754577637,879.597045898,,,
1553360316.5705464,,,,,,,
1553360316.5708027,,,,,,,
1553360316.5709589,,,,,,,
1553360316.5715363,854.615356445,804.249084473,819.157531738,840.915771484,,,
1553360316.5741298,,,,,2400659.25,167896256.0,159860224.0
1553360316.5754352,819.157531738,804.652038574,816.739929199,789.743591309,,,
1553360316.5793343,821.575073242,801.025634766,811.501831055,819.963378906,,,
1553360316.5832331,859.047607422,801.025634766,812.710632324,869.926757812,,,
1553360316.5871320,862.271057129,806.666687012,812.307678223,839.706970215,,,
1553360316.5897291,,,,,2396630.0,167903520.0,159879568.0
1553360316.5901799,,,,,,,
1553360316.5904360,,,,,,,
1553360316.5910308,821.575073242,805.457885742,809.084228516,786.1171875,,,
1553360316.5949299,812.710632324,802.637390137,811.501831055,793.369934082,,,
1553360316.5988288,855.824157715,806.26373291,811.904785156,851.79486084,,,
1553360316.6027277,873.553100586,808.278381348,810.293029785,865.897460938,,,
1553360316.6053283,,,,,2400659.25,167929312.0,159876336.0
1553360316.6061277,,,,,,,
1553360316.6066265,835.67767334,805.860778809,806.666687012,821.575073242,,,
1553360316.6098135,,,,,,,
1553360316.6100695,,,,,,,
1553360316.6105256,815.934082031,804.652038574,805.860778809,808.681335449,,,
1553360316.6144245,854.212463379,808.681335449,809.890136719,856.227111816,,,
1553360316.6183233,881.20880127,810.293029785,807.47253418,879.194152832,,,
1553360316.6209276,,,,,2405494.5,167980080.0,159915024.0
1553360316.6222222,854.212463379,807.47253418,802.234436035,832.857116699,,,
1553360316.6261213,827.216125488,807.069580078,799.41394043,800.622680664,,,
1553360316.6294470,,,,,,,
1553360316.6297030,,,,,,,
1553360316.6300201,856.630065918,810.293029785,803.040283203,838.498168945,,,
1553360316.6339190,897.32598877,813.516479492,809.487182617,879.194152832,,,
1553360316.6359718,,,,,,,
1553360316.6359718,,,,,,,
1553360316.6361976,,,,,,,
1553360316.6362224,,,,,,,
1553360316.6362481,,,,,,,
1553360316.6363618,,,,,,,
1553360316.6364217,,,,,,,
1553360316.6364622,,,,,,,
1553360316.6364934,,,,,,,
1553360316.6365256,,,,,,,
1553360316.6365268,,,,,2403077.0,168026816.0,159867472.0
1553360316.6366453,,,,,,,
1553360316.6366804,,,,,,,
1553360316.6367059,,,,,,,
1553360316.6367359,,,,,,,
1553360316.6368256,,,,,,,
1553360316.6368711,,,,,,,
1553360316.6368895,,,,,,,
1553360316.6370487,,,,,,,
1553360316.6378179,884.432250977,815.53112793,809.890136719,851.79486084,,,
1553360316.6412966,,,,,,,
1553360316.6417170,835.67767334,810.293029785,807.875488281,800.622680664,,,
1553360316.6456158,837.692321777,808.681335449,807.069580078,815.128234863,,,
1553360316.6490805,,,,,,,
1553360316.6493363,,,,,,,
1553360316.6495147,877.985351562,811.904785156,806.26373291,869.120849609,,,
1553360316.6521261,,,,,2401465.25,167989744.0,159967392.0
1553360316.6534135,881.20880127,813.113525391,803.040283203,861.062255859,,,
1553360316.6573126,843.73626709,815.934082031,799.41394043,808.681335449,,,
1553360316.6612115,825.604370117,815.53112793,800.219787598,811.904785156,,,
1553360316.6651103,859.85345459,813.516479492,803.040283203,861.465209961,,,
1553360316.6677251,,,,,2402271.0,168024400.0,159905344.0
1553360316.6687138,,,,,,,
1553360316.6689699,,,,,,,
1553360316.6690092,874.358947754,813.113525391,802.234436035,868.717956543,,,
1553360316.6729083,842.124511719,813.919433594,804.249084473,818.351623535,,,
1553360316.6764655,,,,,,,
1553360316.6768072,811.501831055,810.695983887,809.084228516,800.219787598,,,
1553360316.6807060,836.483520508,813.113525391,813.919433594,851.391967773,,,
1553360316.6833243,,,,,2404688.75,168070336.0,159969008.0
1553360316.6846049,870.329650879,812.710632324,813.516479492,880.805847168,,,
1553360316.6883473,,,,,,,
1553360316.6885040,847.765563965,808.278381348,811.501831055,836.886474609,,,
1553360316.6886032,,,,,,,
1553360316.6924028,817.545776367,810.293029785,810.695983887,795.384643555,,,
1553360316.6963017,836.080566406,807.47253418,804.652038574,833.260070801,,,
1553360316.6989236,,,,,2404688.75,168063888.0,159899712.0
1553360316.7002006,870.73260498,806.26373291,801.428588867,881.611694336,,,
1553360316.7040997,870.329650879,809.890136719,806.666687012,844.139221191,,,
1553360316.7079809,,,,,,,
1553360316.7079985,842.52746582,808.278381348,805.860778809,788.131896973,,,
1553360316.7082367,,,,,,,
1553360316.7116344,,,,,,,
1553360316.7118974,846.153869629,805.054931641,803.443237305,816.336975098,,,
1553360316.7145228,,,,,2399047.5,168062272.0,159865056.0
1553360316.7157962,889.26739502,803.846130371,806.666687012,873.956054688,,,
1553360316.7196953,909.816833496,805.054931641,805.054931641,867.106201172,,,
1553360316.7235942,884.029296875,805.457885742,801.428588867,804.652038574,,,
1553360316.7274930,869.120849609,803.846130371,805.860778809,801.831481934,,,
1553360316.7276144,,,,,,,
1553360316.7278702,,,,,,,
1553360316.7301221,,,,,2407912.0,168140432.0,159927104.0
1553360316.7313919,904.175842285,803.443237305,813.113525391,867.509155273,,,
1553360316.7352910,929.963378906,800.622680664,810.695983887,876.776550293,,,
1553360316.7374451,,,,,,,
1553360316.7374451,,,,,,,
1553360316.7376709,,,,,,,
1553360316.7376957,,,,,,,
1553360316.7377217,,,,,,,
1553360316.7378349,,,,,,,
1553360316.7378948,,,,,,,
1553360316.7379355,,,,,,,
1553360316.7379668,,,,,,,
1553360316.7379990,,,,,,,
1553360316.7381184,,,,,,,
1553360316.7381532,,,,,,,
1553360316.7381787,,,,,,,
1553360316.7382088,,,,,,,
1553360316.7382984,,,,,,,
1553360316.7383437,,,,,,,
1553360316.7383623,,,,,,,
1553360316.7385211,,,,,,,
1553360316.7391899,900.952392578,798.608032227,806.26373291,817.142883301,,,
1553360316.7430887,880.0,806.666687012,807.47253418,792.564086914,,,
1553360316.7457213,,,,,2404688.75,168015536.0,159940000.0
1553360316.7468033,,,,,,,
1553360316.7469876,909.41394043,805.457885742,809.890136719,838.901123047,,,
1553360316.7472479,,,,,,,
1553360316.7475035,,,,,,,
1553360316.7508867,940.842468262,799.816833496,811.098876953,869.523803711,,,
1553360316.7547855,927.142883301,803.846130371,810.293029785,832.454223633,,,
1553360316.7586844,893.699645996,810.293029785,808.681335449,797.802185059,,,
1553360316.7613206,,,,,2403077.0,168025200.0,159943216.0
1553360316.7625833,908.608032227,810.293029785,809.084228516,827.619018555,,,
1553360316.7664824,945.274719238,811.904785156,807.875488281,875.970703125,,,
1553360316.7668815,,,,,,,
1553360316.7671371,,,,,,,
1553360316.7703812,933.186828613,813.113525391,814.32232666,857.435913086,,,
1553360316.7742801,891.684997559,812.307678223,815.53112793,807.875488281,,,
1553360316.7769198,,,,,2392600.75,167922048.0,159815904.0
1553360316.7781789,888.05859375,810.695983887,811.904785156,820.366271973,,,
1553360316.7819722,,,,,,,
1553360316.7820780,923.516479492,809.487182617,811.904785156,875.164855957,,,
1553360316.7859769,934.395629883,809.084228516,811.098876953,878.388305664,,,
1553360316.7865148,,,,,,,
1553360316.7867706,,,,,,,
1553360316.7898757,882.417602539,802.234436035,807.875488281,823.58972168,,,
1553360316.7925191,,,,,2399047.5,167915600.0,159881984.0
1553360316.7937746,857.838806152,799.816833496,815.128234863,804.652038574,,,
1553360316.7976737,899.340637207,803.443237305,821.575073242,854.615356445,,,
1553360316.8015726,918.278381348,803.846130371,821.575073242,877.582397461,,,
1553360316.8054714,880.805847168,803.846130371,809.487182617,826.007324219,,,
1553360316.8061483,,,,,,,
1553360316.8064039,,,,,,,
1553360316.8081181,,,,,2396630.0,167810032.0,159817504.0
1553360316.8093703,844.542114258,803.846130371,803.443237305,798.608032227,,,
1553360316.8132694,865.897460938,809.487182617,811.501831055,841.721618652,,,
1553360316.8171411,,,,,,,
1553360316.8171682,887.252746582,807.069580078,813.919433594,876.373596191,,,
1553360316.8210671,866.703308105,802.234436035,814.32232666,838.095214844,,,
1553360316.8237174,,,,,2391794.75,167861616.0,159823152.0
1553360316.8249660,830.439575195,809.084228516,813.113525391,795.787536621,,,
1553360316.8257818,,,,,,,
1553360316.8260374,,,,,,,
1553360316.8288651,831.648376465,810.293029785,814.725280762,831.245422363,,,
1553360316.8327639,866.300354004,805.054931641,811.098876953,882.417602539,,,
1553360316.8366628,860.659362793,805.860778809,806.666687012,863.8828125,,,
1553360316.8389182,,,,,,,
1553360316.8389182,,,,,,,
1553360316.8391440,,,,,,,
1553360316.8391693,,,,,,,
1553360316.8391950,,,,,,,
1553360316.8393083,,,,,,,
1553360316.8393166,,,,,2396630.0,167807616.0,159841680.0
1553360316.8393681,,,,,,,
1553360316.8394086,,,,,,,
1553360316.8394399,,,,,,,
1553360316.8394721,,,,,,,
1553360316.8395913,,,,,,,
1553360316.8396263,,,,,,,
1553360316.8396516,,,,,,,
1553360316.8396816,,,,,,,
1553360316.8397710,,,,,,,
1553360316.8398166,,,,,,,
1553360316.8398349,,,,,,,
1553360316.8399937,,,,,,,
1553360316.8405616,815.53112793,809.890136719,807.069580078,805.054931641,,,
1553360316.8444607,796.593383789,804.249084473,804.652038574,805.457885742,,,
1553360316.8454154,,,,,,,
1553360316.8456707,,,,,,,
1553360316.8483596,824.798522949,799.41394043,805.054931641,865.091552734,,,
1553360316.8522584,841.721618652,807.069580078,805.860778809,867.106201172,,,
1553360316.8523102,,,,,,,
1553360316.8549159,,,,,2394212.5,167774576.0,159815088.0
1553360316.8561573,810.293029785,809.084228516,805.457885742,806.26373291,,,
1553360316.8600564,784.908447266,804.652038574,806.26373291,791.355285645,,,
1553360316.8639553,813.919433594,804.249084473,804.249084473,835.274719238,,,
1553360316.8650489,,,,,,,
1553360316.8653042,,,,,,,
1553360316.8678541,843.333312988,807.875488281,802.637390137,857.838806152,,,
1553360316.8705151,,,,,2395824.25,167792304.0,159819120.0
1553360316.8717530,813.113525391,811.098876953,804.652038574,818.351623535,,,
1553360316.8756521,771.20880127,808.278381348,803.846130371,786.520141602,,,
1553360316.8795509,786.923095703,803.040283203,800.622680664,827.216125488,,,
1553360316.8834498,826.41027832,805.054931641,798.20513916,870.73260498,,,
1553360316.8846824,,,,,,,
1553360316.8849378,,,,,,,
1553360316.8861144,,,,,2393406.5,167799568.0,159846528.0
1553360316.8873487,816.739929199,803.846130371,802.637390137,839.304016113,,,
1553360316.8874791,,,,,,,
1553360316.8912477,781.282043457,803.443237305,812.307678223,794.981689453,,,
1553360316.8951466,788.534790039,809.084228516,811.098876953,824.395629883,,,
1553360316.8990455,829.230773926,809.487182617,805.860778809,877.179504395,,,
1553360316.9017136,,,,,2396630.0,167796336.0,159803808.0
1553360316.9029443,830.036621094,808.681335449,805.054931641,861.868103027,,,
1553360316.9043157,,,,,,,
1553360316.9045711,,,,,,,
1553360316.9068434,790.14654541,806.666687012,802.637390137,804.652038574,,,
1553360316.9107423,779.670349121,808.278381348,803.040283203,811.098876953,,,
1553360316.9146411,820.769226074,811.904785156,810.695983887,867.106201172,,,
1553360316.9173129,,,,,2404688.75,167817296.0,159873120.0
1553360316.9185400,838.901123047,811.501831055,813.516479492,880.805847168,,,
1553360316.9224391,801.025634766,809.890136719,811.098876953,826.007324219,,,
1553360316.9226480,,,,,,,
1553360316.9239492,,,,,,,
1553360316.9242046,,,,,,,
1553360316.9263380,777.655700684,807.875488281,801.831481934,797.399291992,,,
1553360316.9302368,810.695983887,811.098876953,801.831481934,847.362609863,,,
1553360316.9329121,,,,,2397436.0,167829376.0,159814288.0
1553360316.9341357,838.498168945,813.919433594,809.084228516,879.194152832,,,
1553360316.9380348,813.113525391,811.098876953,802.637390137,836.886474609,,,
1553360316.9403915,,,,,,,
1553360316.9403915,,,,,,,
1553360316.9406173,,,,,,,
1553360316.9406426,,,,,,,
1553360316.9406683,,,,,,,
1553360316.9407816,,,,,,,
1553360316.9408412,,,,,,,
1553360316.9408820,,,,,,,
1553360316.9409130,,,,,,,
1553360316.9409451,,,,,,,
1553360316.9410644,,,,,,,
1553360316.9410992,,,,,,,
1553360316.9411247,,,,,,,
1553360316.9411545,,,,,,,
1553360316.9412439,,,,,,,
1553360316.9412892,,,,,,,
1553360316.9413078,,,,,,,
1553360316.9414661,,,,,,,
1553360316.9419336,779.670349121,810.293029785,795.384643555,794.981689453,,,
1553360316.9435828,,,,,,,
1553360316.9438381,,,,,,,
1553360316.9458325,806.26373291,816.336975098,804.652038574,828.021972656,,,
1553360316.9485111,,,,,2404688.75,167759264.0,159823152.0
1553360316.9497313,857.435913086,817.142883301,810.293029785,875.970703125,,,
1553360316.9536304,846.959716797,810.293029785,810.293029785,849.780212402,,,
1553360316.9575293,801.025634766,815.128234863,809.487182617,803.040283203,,,
1553360316.9578168,,,,,,,
1553360316.9614282,807.069580078,815.53112793,805.457885742,824.798522949,,,
1553360316.9632163,,,,,,,
1553360316.9634714,,,,,,,
1553360316.9641104,,,,,2398241.75,167764096.0,159764320.0
1553360316.9653270,843.73626709,811.501831055,804.652038574,879.194152832,,,
1553360316.9692261,842.124511719,816.739929199,799.816833496,874.358947754,,,
1553360316.9731250,803.846130371,815.128234863,800.622680664,815.934082031,,,
1553360316.9770238,799.816833496,813.516479492,802.234436035,797.802185059,,,
1553360316.9797096,,,,,2401465.25,167750400.0,159825568.0
1553360316.9809227,842.930419922,814.725280762,799.010986328,844.945068359,,,
1553360316.9828498,,,,,,,
1553360316.9831049,,,,,,,
1553360316.9848218,863.076904297,812.710632324,798.608032227,863.479858398,,,
1553360316.9887207,830.036621094,813.113525391,800.219787598,816.739929199,,,
1553360316.9926195,799.010986328,810.695983887,803.846130371,791.758239746,,,
1553360316.9929857,,,,,,,
1553360316.9953089,,,,,2403077.0,167853552.0,159869088.0
1553360316.9965184,826.813171387,807.069580078,806.26373291,842.124511719,,,
1553360317.0004175,857.435913086,808.278381348,805.457885742,885.238098145,,,
1553360317.0024834,,,,,,,
1553360317.0027385,,,,,,,
1553360317.0043163,834.871765137,809.890136719,808.278381348,840.109863281,,,
1553360317.0082152,800.622680664,804.652038574,809.890136719,793.369934082,,,
1553360317.0109081,,,,,2402271.0,167796336.0,159807040.0
1553360317.0121140,817.545776367,802.234436035,808.278381348,826.813171387,,,
1553360317.0160131,858.644714355,805.054931641,805.860778809,873.15020752,,,
1553360317.0199120,856.227111816,809.084228516,812.710632324,848.974365234,,,
1553360317.0221167,,,,,,,
1553360317.0223718,,,,,,,
1553360317.0238109,818.754577637,810.695983887,814.725280762,802.234436035,,,
1553360317.0265074,,,,,2397436.0,167780224.0,159823152.0
1553360317.0277097,816.739929199,807.069580078,807.069580078,814.32232666,,,
1553360317.0281546,,,,,,,
1553360317.0316088,864.285705566,807.069580078,806.666687012,860.659362793,,,
1553360317.0355077,873.15020752,809.084228516,802.637390137,853.809509277,,,
1553360317.0394065,828.827819824,806.666687012,800.622680664,802.637390137,,,
1553360317.0417502,,,,,,,
1553360317.0418649,,,,,,,
1553360317.0418649,,,,,,,
1553360317.0420053,,,,,,,
1553360317.0420904,,,,,,,
1553360317.0421066,,,,,2399853.5,167814864.0,159761904.0
1553360317.0421159,,,,,,,
1553360317.0421417,,,,,,,
1553360317.0422547,,,,,,,
1553360317.0423145,,,,,,,
1553360317.0423551,,,,,,,
1553360317.0423863,,,,,,,
1553360317.0424185,,,,,,,
1553360317.0425372,,,,,,,
1553360317.0425723,,,,,,,
1553360317.0425975,,,,,,,
1553360317.0426276,,,,,,,
1553360317.0427167,,,,,,,
1553360317.0427620,,,,,,,
1553360317.0427804,,,,,,,
1553360317.0429387,,,,,,,
1553360317.0433054,818.351623535,810.293029785,805.860778809,795.384643555,,,
1553360317.0472045,861.868103027,812.710632324,809.084228516,848.571411133,,,
1553360317.0511034,892.087890625,816.336975098,815.934082031,868.315002441,,,
1553360317.0550022,862.67401123,819.157531738,814.725280762,821.575073242,,,
1553360317.0577059,,,,,2399853.5,167806000.0,159850544.0
1553360317.0589011,828.827819824,812.710632324,807.47253418,801.428588867,,,
1553360317.0613837,,,,,,,
1553360317.0616386,,,,,,,
1553360317.0628002,861.062255859,811.904785156,807.875488281,844.139221191,,,
1553360317.0633235,,,,,,,
1553360317.0666990,906.996337891,814.725280762,809.084228516,871.94140625,,,
1553360317.0705979,891.684997559,812.710632324,813.113525391,834.46887207,,,
1553360317.0733051,,,,,2400659.25,167801984.0,159810256.0
1553360317.0744967,851.391967773,807.069580078,809.890136719,795.384643555,,,
1553360317.0783958,867.509155273,807.069580078,809.487182617,825.604370117,,,
1553360317.0810173,,,,,,,
1553360317.0812721,,,,,,,
1553360317.0822947,910.219787598,814.725280762,809.487182617,868.717956543,,,
1553360317.0861936,901.758239746,813.919433594,803.040283203,850.183166504,,,
1553360317.0889041,,,,,2397436.0,167795536.0,159826368.0
1553360317.0900924,857.838806152,805.054931641,800.219787598,801.428588867,,,
1553360317.0939915,854.615356445,801.025634766,798.20513916,800.622680664,,,
1553360317.0978904,900.549438477,803.040283203,801.025634766,853.406616211,,,
1553360317.0984924,,,,,,,
1553360317.1006508,,,,,,,
1553360317.1009057,,,,,,,
1553360317.1017892,913.846130371,810.293029785,806.666687012,861.062255859,,,
1553360317.1045034,,,,,2403077.0,167801984.0,159869888.0
1553360317.1056881,874.761901855,810.695983887,805.054931641,801.831481934,,,
1553360317.1095872,861.868103027,808.681335449,805.860778809,791.758239746,,,
1553360317.1134861,892.893798828,809.487182617,808.278381348,848.974365234,,,
1553360317.1173849,911.831481934,808.681335449,804.249084473,871.538452148,,,
1553360317.1201026,,,,,2400659.25,167797136.0,159821536.0
1553360317.1202843,,,,,,,
1553360317.1205389,,,,,,,
1553360317.1212838,882.014648438,803.443237305,801.428588867,821.575073242,,,
1553360317.1251829,845.750915527,804.249084473,799.41394043,785.714294434,,,
1553360317.1290817,859.450561523,809.890136719,799.010986328,830.036621094,,,
1553360317.1329806,894.908447266,809.084228516,805.054931641,874.761901855,,,
1553360317.1336613,,,,,,,
1553360317.1357019,,,,,2397436.0,167791504.0,159841680.0
1553360317.1368794,878.79119873,805.457885742,805.457885742,838.095214844,,,
1553360317.1399176,,,,,,,
1553360317.1401725,,,,,,,
1553360317.1407785,830.036621094,807.069580078,803.846130371,786.520141602,,,
1553360317.1433382,,,,,,,
1553360317.1433382,,,,,,,
1553360317.1435637,,,,,,,
1553360317.1435895,,,,,,,
1553360317.1436152,,,,,,,
1553360317.1437280,,,,,,,
1553360317.1437876,,,,,,,
1553360317.1438282,,,,,,,
1553360317.1438594,,,,,,,
1553360317.1438916,,,,,,,
1553360317.1440103,,,,,,,
1553360317.1440451,,,,,,,
1553360317.1440706,,,,,,,
1553360317.1441004,,,,,,,
1553360317.1441894,,,,,,,
1553360317.1442347,,,,,,,
1553360317.1442533,,,,,,,
1553360317.1444111,,,,,,,
1553360317.1446774,833.663024902,807.47253418,803.443237305,812.307678223,,,
1553360317.1485763,877.179504395,808.681335449,798.20513916,870.73260498,,,
1553360317.1513011,,,,,2401465.25,167811648.0,159785280.0
1553360317.1524751,882.820495605,813.113525391,802.234436035,854.212463379,,,
1553360317.1563742,835.67767334,811.501831055,803.846130371,796.593383789,,,
1553360317.1595511,,,,,,,
1553360317.1598060,,,,,,,
1553360317.1602731,815.128234863,806.666687012,801.831481934,803.443237305,,,
1553360317.1641719,848.168518066,807.875488281,807.47253418,858.644714355,,,
1553360317.1669004,,,,,2394212.5,167812448.0,159823952.0
1553360317.1680708,865.091552734,809.890136719,811.098876953,868.315002441,,,
1553360317.1688302,,,,,,,
1553360317.1719699,835.67767334,810.695983887,815.128234863,818.754577637,,,
1553360317.1758687,810.293029785,805.457885742,812.710632324,804.249084473,,,
1553360317.1791847,,,,,,,
1553360317.1794393,,,,,,,
1553360317.1797676,834.065917969,805.054931641,809.890136719,853.406616211,,,
1553360317.1824996,,,,,2401465.25,167803584.0,159803808.0
1553360317.1836665,862.67401123,814.725280762,814.725280762,873.956054688,,,
1553360317.1875656,836.886474609,818.351623535,812.710632324,827.216125488,,,
1553360317.1914644,802.637390137,815.934082031,810.293029785,790.14654541,,,
1553360317.1953633,824.798522949,814.32232666,811.098876953,830.439575195,,,
1553360317.1980989,,,,,2399853.5,167789088.0,159905344.0
1553360317.1988182,,,,,,,
1553360317.1990728,,,,,,,
1553360317.1992621,865.897460938,813.919433594,810.293029785,882.014648438,,,
1553360317.2031612,852.197814941,814.32232666,811.501831055,856.227111816,,,
1553360317.2039990,,,,,,,
1553360317.2070601,807.47253418,812.307678223,804.652038574,807.47253418,,,
1553360317.2109590,809.084228516,806.666687012,800.219787598,826.007324219,,,
1553360317.2136981,,,,,2400659.25,167837440.0,159825568.0
1553360317.2148578,853.406616211,808.278381348,810.695983887,868.315002441,,,
1553360317.2184517,,,,,,,
1553360317.2187061,,,,,,,
1553360317.2187569,857.435913086,811.098876953,809.084228516,854.615356445,,,
1553360317.2226558,814.725280762,811.098876953,803.443237305,799.816833496,,,
1553360317.2265546,806.26373291,809.084228516,805.860778809,804.249084473,,,
1553360317.2292974,,,,,2405494.5,167848720.0,159877136.0
1553360317.2304535,837.289367676,808.278381348,811.501831055,863.479858398,,,
1553360317.2343526,858.241760254,812.710632324,808.278381348,867.912109375,,,
1553360317.2380853,,,,,,,
1553360317.2382514,830.036621094,817.545776367,802.637390137,822.783874512,,,
1553360317.2383397,,,,,,,
1553360317.2391682,,,,,,,
1553360317.2421503,802.637390137,809.487182617,807.875488281,804.652038574,,,
1553360317.2448113,,,,,,,
1553360317.2448113,,,,,,,
1553360317.2448964,,,,,2405494.5,167893840.0,159855392.0
1553360317.2450368,,,,,,,
1553360317.2450628,,,,,,,
1553360317.2450886,,,,,,,
1553360317.2452013,,,,,,,
1553360317.2452607,,,,,,,
1553360317.2453015,,,,,,,
1553360317.2453327,,,,,,,
1553360317.2453647,,,,,,,
1553360317.2454834,,,,,,,
1553360317.2455180,,,,,,,
1553360317.2455435,,,,,,,
1553360317.2455733,,,,,,,
1553360317.2456622,,,,,,,
1553360317.2457073,,,,,,,
1553360317.2457259,,,,,,,
1553360317.2458837,,,,,,,
1553360317.2460492,830.036621094,803.846130371,811.501831055,842.52746582,,,
1553360317.2499483,861.062255859,807.875488281,809.890136719,875.970703125,,,
1553360317.2538471,841.721618652,807.875488281,812.307678223,837.692321777,,,
1553360317.2577186,,,,,,,
1553360317.2577460,806.666687012,805.457885742,804.249084473,796.996337891,,,
1553360317.2579732,,,,,,,
1553360317.2604957,,,,,2400659.25,167885792.0,159872304.0
1553360317.2616448,822.380981445,807.875488281,798.608032227,830.439575195,,,
1553360317.2655439,865.494506836,812.710632324,805.457885742,879.194152832,,,
1553360317.2694428,853.003662109,808.278381348,807.069580078,855.421264648,,,
1553360317.2733417,807.069580078,801.831481934,807.875488281,799.010986328,,,
1553360317.2743371,,,,,,,
1553360317.2760949,,,,,2410329.75,167862416.0,159917440.0
1553360317.2772405,807.069580078,800.622680664,809.084228516,807.069580078,,,
1553360317.2773521,,,,,,,
1553360317.2776065,,,,,,,
1553360317.2811396,848.571411133,805.860778809,803.846130371,861.062255859,,,
1553360317.2850385,862.271057129,809.890136719,802.637390137,858.644714355,,,
1553360317.2889373,822.380981445,808.681335449,804.652038574,805.457885742,,,
1553360317.2916942,,,,,2410329.75,167943808.0,159945648.0
1553360317.2928362,799.010986328,805.860778809,794.981689453,799.816833496,,,
1553360317.2967353,834.065917969,801.025634766,794.981689453,854.615356445,,,
1553360317.2969856,,,,,,,
1553360317.2972400,,,,,,,
1553360317.3006341,863.479858398,803.040283203,807.069580078,865.897460938,,,
1553360317.3045330,833.663024902,810.293029785,809.084228516,815.53112793,,,
1553360317.3072934,,,,,2407106.25,167907552.0,159892448.0
1553360317.3084319,804.652038574,809.890136719,813.919433594,796.190490723,,,
1553360317.3095059,,,,,,,
1553360317.3123310,831.648376465,805.457885742,812.307678223,838.095214844,,,
1553360317.3162298,863.8828125,806.26373291,807.47253418,873.15020752,,,
1553360317.3166192,,,,,,,
1553360317.3168736,,,,,,,
1553360317.3201287,849.377319336,811.098876953,811.904785156,834.065917969,,,
1553360317.3228927,,,,,2414359.0,167928496.0,159976256.0
1553360317.3240275,814.32232666,809.890136719,813.516479492,791.758239746,,,
1553360317.3279266,819.560424805,803.846130371,803.846130371,832.051269531,,,
1553360317.3318255,861.062255859,799.010986328,801.428588867,879.597045898,,,
1553360317.3357244,870.329650879,794.175842285,808.681335449,848.571411133,,,
1553360317.3362527,,,,,,,
1553360317.3365068,,,,,,,
1553360317.3384919,,,,,2414359.0,167971216.0,159931936.0
1553360317.3396232,836.483520508,798.608032227,813.919433594,800.219787598,,,
1553360317.3435223,832.454223633,803.040283203,814.32232666,812.710632324,,,
1553360317.3446748,,,,,,,
1553360317.3462846,,,,,,,
1553360317.3462846,,,,,,,
1553360317.3465102,,,,,,,
1553360317.3465362,,,,,,,
1553360317.3465619,,,,,,,
1553360317.3466744,,,,,,,
1553360317.3467340,,,,,,,
1553360317.3467746,,,,,,,
1553360317.3468058,,,,,,,
1553360317.3468380,,,,,,,
1553360317.3469563,,,,,,,
1553360317.3469911,,,,,,,
1553360317.3470163,,,,,,,
1553360317.3470461,,,,,,,
1553360317.3471351,,,,,,,
1553360317.3471801,,,,,,,
1553360317.3471985,,,,,,,
1553360317.3473561,,,,,,,
1553360317.3474212,869.523803711,804.249084473,806.666687012,865.494506836,,,
1553360317.3513200,888.05859375,802.637390137,805.860778809,868.315002441,,,
1553360317.3540912,,,,,2404688.75,167926880.0,159917440.0
1553360317.3552189,853.809509277,799.010986328,811.098876953,810.293029785,,,
1553360317.3558862,,,,,,,
1553360317.3561404,,,,,,,
1553360317.3591180,827.216125488,798.608032227,812.710632324,791.355285645,,,
1553360317.3630168,864.285705566,799.816833496,811.501831055,835.274719238,,,
1553360317.3669157,889.26739502,798.608032227,810.293029785,859.047607422,,,
1553360317.3696904,,,,,2407106.25,168007472.0,159906960.0
1553360317.3708146,863.8828125,799.010986328,810.293029785,814.32232666,,,
1553360317.3747137,833.260070801,801.025634766,810.695983887,788.937744141,,,
1553360317.3755195,,,,,,,
1553360317.3757737,,,,,,,
1553360317.3786125,843.73626709,800.219787598,813.516479492,833.663024902,,,
1553360317.3798437,,,,,,,
1553360317.3825114,877.179504395,806.666687012,817.142883301,869.926757812,,,
1553360317.3852894,,,,,2403077.0,168002640.0,159837648.0
1553360317.3864102,866.300354004,811.904785156,815.934082031,846.153869629,,,
1553360317.3903093,830.842468262,811.098876953,815.128234863,809.890136719,,,
1553360317.3942082,834.871765137,810.293029785,815.53112793,826.007324219,,,
1553360317.3951530,,,,,,,
1553360317.3954072,,,,,,,
1553360317.3981071,868.717956543,812.307678223,810.293029785,872.747253418,,,
1553360317.4008887,,,,,2410329.75,167979264.0,159949664.0
1553360317.4020059,867.912109375,815.934082031,804.249084473,859.047607422,,,
1553360317.4059050,822.783874512,808.278381348,801.831481934,804.249084473,,,
1553360317.4098039,810.695983887,808.681335449,808.278381348,804.249084473,,,
1553360317.4137027,845.347961426,814.725280762,815.128234863,865.897460938,,,
1553360317.4147866,,,,,,,
1553360317.4150126,,,,,,,
1553360317.4150407,,,,,,,
1553360317.4164879,,,,,2407912.0,167967984.0,159972240.0
1553360317.4176016,852.197814941,811.098876953,813.113525391,882.014648438,,,
1553360317.4215007,817.142883301,809.084228516,815.128234863,826.007324219,,,
1553360317.4253995,801.831481934,808.681335449,820.769226074,804.652038574,,,
1553360317.4292984,839.706970215,809.890136719,821.575073242,854.615356445,,,
1553360317.4320872,,,,,2407106.25,168052608.0,159940800.0
1553360317.4331973,876.373596191,811.098876953,821.575073242,880.805847168,,,
1553360317.4344201,,,,,,,
1553360317.4346740,,,,,,,
1553360317.4370964,855.421264648,810.695983887,813.919433594,832.454223633,,,
1553360317.4409952,827.216125488,810.293029785,807.069580078,792.967041016,,,
1553360317.4448941,851.391967773,811.098876953,809.487182617,838.498168945,,,
1553360317.4476864,,,,,2409523.75,168012304.0,159873120.0
1553360317.4477580,,,,,,,
1553360317.4477580,,,,,,,
1553360317.4479835,,,,,,,
1553360317.4480095,,,,,,,
1553360317.4480355,,,,,,,
1553360317.4481478,,,,,,,
1553360317.4482071,,,,,,,
1553360317.4482479,,,,,,,
1553360317.4482791,,,,,,,
1553360317.4483111,,,,,,,
1553360317.4484293,,,,,,,
1553360317.4484639,,,,,,,
1553360317.4484894,,,,,,,
1553360317.4485192,,,,,,,
1553360317.4486079,,,,,,,
1553360317.4486527,,,,,,,
1553360317.4486713,,,,,,,
1553360317.4487929,889.26739502,815.128234863,809.487182617,894.102539062,,,
1553360317.4488287,,,,,,,
1553360317.4501815,,,,,,,
1553360317.4526920,881.20880127,814.725280762,810.695983887,861.868103027,,,
1553360317.4540536,,,,,,,
1553360317.4543076,,,,,,,
1553360317.4565909,844.945068359,812.307678223,812.307678223,805.054931641,,,
1553360317.4604897,845.750915527,809.890136719,806.666687012,820.366271973,,,
1553360317.4632857,,,,,2409523.75,167975232.0,159868272.0
1553360317.4643886,885.238098145,809.487182617,804.249084473,873.15020752,,,
1553360317.4682877,896.520141602,807.069580078,806.26373291,858.644714355,,,
1553360317.4721866,864.285705566,801.831481934,805.860778809,805.054931641,,,
1553360317.4736872,,,,,,,
1553360317.4739411,,,,,,,
1553360317.4760854,858.241760254,805.054931641,807.069580078,818.351623535,,,
1553360317.4788849,,,,,2407106.25,167988128.0,159881168.0
1553360317.4799843,898.131896973,805.860778809,811.098876953,876.776550293,,,
1553360317.4838834,915.457885742,805.860778809,807.875488281,879.597045898,,,
1553360317.4853504,,,,,,,
1553360317.4877822,880.402954102,804.652038574,805.457885742,825.201477051,,,
1553360317.4916811,847.362609863,801.428588867,801.428588867,800.219787598,,,
1553360317.4933205,,,,,,,
1553360317.4935744,,,,,,,
1553360317.4944842,,,,,2403882.75,167955088.0,159881168.0
1553360317.4955800,867.912109375,803.040283203,797.399291992,844.945068359,,,
1553360317.4994791,902.564086914,803.443237305,806.26373291,871.94140625,,,
1553360317.5033779,885.238098145,804.652038574,803.040283203,832.051269531,,,
1553360317.5072768,848.168518066,801.428588867,796.190490723,800.219787598,,,
1553360317.5100834,,,,,2407106.25,167896256.0,159894064.0
1553360317.5111756,865.897460938,800.622680664,805.457885742,832.454223633,,,
1553360317.5129540,,,,,,,
1553360317.5132079,,,,,,,
1553360317.5150747,907.802185059,803.443237305,803.040283203,868.717956543,,,
1553360317.5189736,903.772888184,805.860778809,799.010986328,837.289367676,,,
1553360317.5205193,,,,,,,
1553360317.5228724,866.300354004,809.890136719,803.040283203,790.14654541,,,
1553360317.5256824,,,,,2403077.0,167860000.0,159865856.0
1553360317.5267713,863.8828125,806.26373291,805.457885742,812.307678223,,,
1553360317.5306704,902.967041016,805.860778809,801.831481934,860.659362793,,,
1553360317.5325875,,,,,,,
1553360317.5328412,,,,,,,
1553360317.5345693,907.802185059,808.278381348,798.20513916,855.018310547,,,
1553360317.5384681,861.868103027,800.219787598,799.41394043,806.666687012,,,
1553360317.5412817,,,,,2398241.75,167758464.0,159800592.0
1553360317.5423670,847.362609863,801.025634766,803.846130371,796.190490723,,,
1553360317.5462661,882.820495605,802.234436035,803.040283203,844.542114258,,,
1553360317.5492311,,,,,,,
1553360317.5492311,,,,,,,
1553360317.5494566,,,,,,,
1553360317.5494831,,,,,,,
1553360317.5495088,,,,,,,
1553360317.5496211,,,,,,,
1553360317.5496802,,,,,,,
1553360317.5497210,,,,,,,
1553360317.5497522,,,,,,,
1553360317.5497842,,,,,,,
1553360317.5499022,,,,,,,
1553360317.5499370,,,,,,,
1553360317.5499623,,,,,,,
1553360317.5499921,,,,,,,
1553360317.5500805,,,,,,,
1553360317.5501256,,,,,,,
1553360317.5501440,,,,,,,
1553360317.5501649,897.32598877,802.234436035,803.040283203,859.85345459,,,
1553360317.5503011,,,,,,,
1553360317.5522211,,,,,,,
1553360317.5524747,,,,,,,
1553360317.5540638,857.838806152,801.428588867,802.637390137,808.278381348,,,
1553360317.5556881,,,,,,,
1553360317.5568810,,,,,2397436.0,167793120.0,159805424.0
1553360317.5579627,824.798522949,799.41394043,799.41394043,780.879150391,,,
1553360317.5618618,851.391967773,801.025634766,805.860778809,833.260070801,,,
1553360317.5657606,881.20880127,803.443237305,808.278381348,876.776550293,,,
1553360317.5696595,853.406616211,802.234436035,801.025634766,840.512817383,,,
1553360317.5718546,,,,,,,
1553360317.5721083,,,,,,,
1553360317.5724802,,,,,2395824.25,167779408.0,159815088.0
1553360317.5735583,818.351623535,800.622680664,812.307678223,789.340637207,,,
1553360317.5774574,834.065917969,800.622680664,815.934082031,819.157531738,,,
1553360317.5813563,870.329650879,799.41394043,803.846130371,874.358947754,,,
1553360317.5852551,861.465209961,799.816833496,797.399291992,850.183166504,,,
1553360317.5880795,,,,,2399853.5,167745568.0,159807040.0
1553360317.5891540,817.142883301,798.20513916,796.593383789,792.967041016,,,
1553360317.5908570,,,,,,,
1553360317.5914881,,,,,,,
1553360317.5917416,,,,,,,
1553360317.5930531,807.47253418,793.772888184,794.175842285,801.428588867,,,
1553360317.5969520,840.512817383,792.161193848,797.802185059,857.032958984,,,
1553360317.6008508,846.959716797,795.384643555,802.234436035,851.79486084,,,
1553360317.6036787,,,,,2401465.25,167735088.0,159796560.0
1553360317.6047497,803.443237305,793.772888184,801.025634766,800.219787598,,,
1553360317.6086488,785.714294434,792.967041016,801.831481934,798.608032227,,,
1553360317.6111214,,,,,,,
1553360317.6113751,,,,,,,
1553360317.6125476,821.172180176,797.399291992,801.428588867,852.197814941,,,
1553360317.6164465,842.124511719,803.443237305,801.025634766,871.135559082,,,
1553360317.6192780,,,,,2398241.75,167708496.0,159761904.0
1553360317.6203454,809.487182617,805.860778809,803.040283203,823.186828613,,,
1553360317.6242445,779.670349121,802.234436035,803.846130371,799.41394043,,,
1553360317.6260262,,,,,,,
1553360317.6281433,799.41394043,800.622680664,797.802185059,847.765563965,,,
1553360317.6307549,,,,,,,
1553360317.6310086,,,,,,,
1553360317.6320422,833.663024902,807.069580078,799.41394043,876.373596191,,,
1553360317.6348772,,,,,2402271.0,167682704.0,159776416.0
1553360317.6359410,822.380981445,808.278381348,804.249084473,833.260070801,,,
1553360317.6398401,778.864440918,806.26373291,805.054931641,792.161193848,,,
1553360317.6437390,783.296691895,806.666687012,805.054931641,820.769226074,,,
1553360317.6476378,828.021972656,810.695983887,808.681335449,875.164855957,,,
1553360317.6503885,,,,,,,
1553360317.6504765,,,,,2399047.5,167675456.0,159786080.0
1553360317.6506419,,,,,,,
1553360317.6507044,,,,,,,
1553360317.6507044,,,,,,,
1553360317.6509299,,,,,,,
1553360317.6509564,,,,,,,
1553360317.6509821,,,,,,,
1553360317.6510942,,,,,,,
1553360317.6511536,,,,,,,
1553360317.6511943,,,,,,,
1553360317.6512253,,,,,,,
1553360317.6512575,,,,,,,
1553360317.6513753,,,,,,,
1553360317.6514099,,,,,,,
1553360317.6514354,,,,,,,
1553360317.6514649,,,,,,,
1553360317.6515367,837.289367676,816.336975098,812.307678223,863.8828125,,,
1553360317.6515534,,,,,,,
1553360317.6515982,,,,,,,
1553360317.6516168,,,,,,,
1553360317.6517737,,,,,,,
1553360317.6554358,801.025634766,812.307678223,809.084228516,809.890136719,,,
1553360317.6593347,791.355285645,806.26373291,803.040283203,817.142883301,,,
1553360317.6611950,,,,,,,
1553360317.6632335,829.633728027,808.681335449,806.26373291,862.271057129,,,
1553360317.6660755,,,,,2401465.25,167686736.0,159756256.0
1553360317.6671324,842.124511719,807.875488281,806.666687012,856.227111816,,,
1553360317.6700220,,,,,,,
1553360317.6702754,,,,,,,
1553360317.6710315,810.695983887,803.443237305,801.428588867,805.457885742,,,
1553360317.6749303,790.549438477,805.860778809,801.831481934,791.355285645,,,
1553360317.6788292,820.769226074,808.681335449,804.249084473,841.721618652,,,
1553360317.6816747,,,,,2392600.75,167665792.0,159791728.0
1553360317.6827281,856.227111816,810.695983887,807.069580078,874.358947754,,,
1553360317.6866271,836.483520508,810.695983887,809.890136719,840.512817383,,,
1553360317.6896555,,,,,,,
1553360317.6899090,,,,,,,
1553360317.6905260,806.666687012,808.278381348,812.710632324,801.428588867,,,
1553360317.6944249,828.827819824,809.487182617,812.710632324,836.483520508,,,
1553360317.6963639,,,,,,,
1553360317.6972740,,,,,2393406.5,167728640.0,159723216.0
1553360317.6983237,867.509155273,809.084228516,806.666687012,882.417602539,,,
1553360317.7022228,850.989013672,804.652038574,801.428588867,850.183166504,,,
1553360317.7061217,807.47253418,809.084228516,804.652038574,795.787536621,,,
1553360317.7092891,,,,,,,
1553360317.7095423,,,,,,,
1553360317.7100205,815.934082031,810.293029785,799.816833496,813.113525391,,,
1553360317.7128732,,,,,2396630.0,167729456.0,159799776.0
1553360317.7139194,857.435913086,804.652038574,798.20513916,869.523803711,,,
1553360317.7178185,855.018310547,806.26373291,801.025634766,867.106201172,,,
1553360317.7217174,812.710632324,806.26373291,799.010986328,800.219787598,,,
1553360317.7256162,803.846130371,805.860778809,793.772888184,793.772888184,,,
1553360317.7284725,,,,,2395824.25,167753632.0,159811872.0
1553360317.7289224,,,,,,,
1553360317.7291758,,,,,,,
1553360317.7295151,840.512817383,805.860778809,792.967041016,855.018310547,,,
1553360317.7315328,,,,,,,
1553360317.7334142,857.838806152,807.47253418,797.399291992,870.329650879,,,
1553360317.7373130,831.245422363,809.890136719,804.652038574,823.58972168,,,
1553360317.7412119,815.53112793,810.293029785,807.069580078,804.249084473,,,
1553360317.7440717,,,,,2398241.75,167722192.0,159880368.0
1553360317.7451108,841.721618652,809.084228516,804.652038574,857.435913086,,,
1553360317.7485559,,,,,,,
1553360317.7488091,,,,,,,
1553360317.7490098,865.897460938,805.860778809,804.249084473,890.476196289,,,
1553360317.7521777,,,,,,,
1553360317.7521777,,,,,,,
1553360317.7524030,,,,,,,
1553360317.7524297,,,,,,,
1553360317.7524555,,,,,,,
1553360317.7525675,,,,,,,
